# ATLAS2, shifted to air wavelengths.
# Source: Bernhard Mayer, IFU.
# two columns, wavelength [nm] and irradiance [mW/ (m2 nm)]
#
200 7.07908 
200.05 6.96554 
200.1 6.9153 
200.15 7.08216 
200.2 7.32528 
200.25 7.41276 
200.3 7.42571 
200.35 7.35061 
200.4 7.12918 
200.45 7.14323 
200.5 7.38287 
200.55 7.67167 
200.6 7.79359 
200.65 7.54116 
200.7 7.4001 
200.75 7.36791 
200.8 7.41649 
200.85 7.48079 
200.9 7.64703 
200.95 7.85886 
201 7.93181 
201.05 7.58622 
201.1 7.14743 
201.15 7.41654 
201.2 7.86883 
201.25 8.24825 
201.3 8.49951 
201.35 8.4536 
201.4 8.21146 
201.45 7.99343 
201.5 7.87356 
201.55 7.87481 
201.6 7.88891 
201.65 8.14361 
201.7 8.59763 
201.75 8.83877 
201.8 8.98295 
201.85 8.8664 
201.9 8.67088 
201.95 8.63943 
202 8.598 
202.05 8.47527 
202.1 8.26106 
202.15 8.0383 
202.2 7.86302 
202.25 7.98907 
202.3 8.42929 
202.35 8.84681 
202.4 8.86402 
202.45 8.54667 
202.5 7.6589 
202.55 6.717 
202.6 6.47689 
202.65 6.72672 
202.7 7.61532 
202.75 8.6968 
202.8 9.06787 
202.85 9.15984 
202.9 9.00332 
202.95 9.01119 
203 9.13232 
203.05 9.48182 
203.1 10.0173 
203.15 10.1491 
203.2 9.88935 
203.25 9.50732 
203.3 8.88161 
203.35 8.20377 
203.4 8.19599 
203.45 8.49168 
203.5 8.85798 
203.55 9.5 
203.6 9.99174 
203.65 10.1218 
203.7 10.1781 
203.75 10.194 
203.8 9.93931 
203.85 9.49867 
203.9 9.10212 
203.95 8.8367 
204 9.0428 
204.05 9.56828 
204.1 10.0811 
204.15 10.552 
204.2 11.0076 
204.25 11.1975 
204.3 10.9965 
204.35 10.5977 
204.4 10.144 
204.45 10.1805 
204.5 10.5099 
204.55 10.9191 
204.6 11.1803 
204.65 10.9141 
204.7 10.5229 
204.75 10.181 
204.8 10.1698 
204.85 10.5127 
204.9 10.6847 
204.95 10.672 
205 10.7954 
205.05 10.8928 
205.1 10.9384 
205.15 10.9563 
205.2 11.015 
205.25 11.2174 
205.3 11.4138 
205.35 11.4955 
205.4 11.2981 
205.45 10.6572 
205.5 10.1446 
205.55 9.88547 
205.6 9.96849 
205.65 10.5407 
205.7 10.8602 
205.75 10.5799 
205.8 10.1788 
205.85 10.0061 
205.9 10.4647 
205.95 10.9812 
206 11.3351 
206.05 11.2718 
206.1 10.5158 
206.15 10.0776 
206.2 9.76374 
206.25 9.95379 
206.3 10.8061 
206.35 11.1769 
206.4 11.2383 
206.45 11.3416 
206.5 11.3863 
206.55 11.2878 
206.6 11.2105 
206.65 11.2979 
206.7 11.593 
206.75 11.6999 
206.8 11.6407 
206.85 11.4648 
206.9 11.3768 
206.95 11.4998 
207 11.6589 
207.05 11.899 
207.1 12.1059 
207.15 12.1623 
207.2 12.0841 
207.25 12.1145 
207.3 12.2838 
207.35 12.656 
207.4 12.8858 
207.45 12.9152 
207.5 13.0796 
207.55 13.261 
207.6 13.4527 
207.65 13.6341 
207.7 13.7032 
207.75 13.4557 
207.8 13.0042 
207.85 12.941 
207.9 13.1799 
207.95 13.5077 
208 13.6164 
208.05 13.421 
208.1 13.052 
208.15 12.8786 
208.2 12.7935 
208.25 12.8573 
208.3 13.1171 
208.35 13.3397 
208.4 13.302 
208.45 13.3755 
208.5 13.6941 
208.55 14.4682 
208.6 15.6233 
208.65 15.9337 
208.7 16.0092 
208.75 16.7105 
208.8 17.5822 
208.85 17.7494 
208.9 17.0662 
208.95 16.1706 
209 15.5482 
209.05 16.0065 
209.1 17.2871 
209.15 18.7885 
209.2 20.4904 
209.25 22.5822 
209.3 23.52 
209.35 21.7585 
209.4 19.6686 
209.45 19.8477 
209.5 21.4155 
209.55 23.4088 
209.6 23.8647 
209.65 22.9323 
209.7 23.1764 
209.75 25.0905 
209.8 25.9367 
209.85 24.9587 
209.9 22.1977 
209.95 20.3355 
210 19.8294 
210.05 22.584 
210.1 28.2932 
210.15 32.7191 
210.2 30.866 
210.25 26.4827 
210.3 21.6037 
210.35 20.8014 
210.4 22.7717 
210.45 27.4966 
210.5 34.9085 
210.55 38.0274 
210.6 37.0191 
210.65 33.5882 
210.7 31.9794 
210.75 30.9505 
210.8 28.0355 
210.85 24.0001 
210.9 20.9911 
210.95 20.7553 
211 21.732 
211.05 24.3602 
211.1 30.1112 
211.15 36.5965 
211.2 39.1384 
211.25 37.4593 
211.3 33.1225 
211.35 30.6379 
211.4 28.6047 
211.45 26.4552 
211.5 25.7558 
211.55 31.0192 
211.6 38.8141 
211.65 43.3737 
211.7 44.7687 
211.75 42.5679 
211.8 38.4087 
211.85 35.7182 
211.9 38.205 
211.95 46.1443 
212 49.9906 
212.05 47.529 
212.1 42.819 
212.15 36.3751 
212.2 29.5863 
212.25 26.9297 
212.3 23.8377 
212.35 18.8702 
212.4 14.6522 
212.45 15.1573 
212.5 19.1457 
212.55 25.3009 
212.6 31.6788 
212.65 35.175 
212.7 36.4146 
212.75 36.5278 
212.8 37.0838 
212.85 37.4132 
212.9 35.4128 
212.95 31.6287 
213 27.0035 
213.05 25.9733 
213.1 27.417 
213.15 29.1562 
213.2 30.6903 
213.25 31.1028 
213.3 31.2334 
213.35 31.1366 
213.4 30.3158 
213.45 27.5623 
213.5 26.1994 
213.55 27.0562 
213.6 31.9326 
213.65 37.8273 
213.7 41.0046 
213.75 40.5175 
213.8 35.4688 
213.85 26.3911 
213.9 22.9433 
213.95 26.9047 
214 34.638 
214.05 45.7671 
214.1 49.4205 
214.15 46.8013 
214.2 44.217 
214.25 44.0841 
214.3 45.8363 
214.35 46.1421 
214.4 45.3824 
214.45 42.2812 
214.5 37.5123 
214.55 35.2732 
214.6 34.4036 
214.65 33.7201 
214.7 34.3683 
214.75 35.5395 
214.8 37.3935 
214.85 40.1487 
214.9 44.5352 
214.95 46.0556 
215 41.6207 
215.05 35.6598 
215.1 31.2523 
215.15 31.9082 
215.2 34.8984 
215.25 38.2466 
215.3 44.3238 
215.35 48.7316 
215.4 45.5079 
215.45 42.4117 
215.5 39.5718 
215.55 36.1826 
215.6 33.3951 
215.65 30.2967 
215.7 26.0458 
215.75 22.4189 
215.8 21.1511 
215.85 20.9466 
215.9 23.6369 
215.95 31.0479 
216 37.9124 
216.05 41.8523 
216.1 42.8537 
216.15 41.0526 
216.2 39.1123 
216.25 38.9611 
216.3 39.305 
216.35 38.3545 
216.4 36.6046 
216.45 36.0396 
216.5 35.0441 
216.55 29.587 
216.6 22.2013 
216.65 20.8849 
216.7 22.0632 
216.75 25.19 
216.8 29.1561 
216.85 30.2139 
216.9 28.8923 
216.95 27.9712 
217 31.0612 
217.05 35.1771 
217.1 36.9613 
217.15 37.1482 
217.2 37.6357 
217.25 37.6497 
217.3 35.458 
217.35 32.4038 
217.4 28.5332 
217.45 26.2889 
217.5 26.4992 
217.55 28.7346 
217.6 32.1475 
217.65 32.9556 
217.7 29.3273 
217.75 26.8707 
217.8 27.9475 
217.85 33.5124 
217.9 41.5965 
217.95 47.8536 
218 51.7083 
218.05 53.5605 
218.1 54.4239 
218.15 55.949 
218.2 57.2144 
218.25 56.3031 
218.3 51.4269 
218.35 45.1745 
218.4 41.5719 
218.45 42.3206 
218.5 46.7433 
218.55 49.6254 
218.6 45.336 
218.65 34.8858 
218.7 28.9615 
218.75 31.9931 
218.8 37.0095 
218.85 39.6541 
218.9 39.1409 
218.95 39.6939 
219 42.747 
219.05 43.4938 
219.1 42.5509 
219.15 41.0478 
219.2 43.8878 
219.25 50.7369 
219.3 58.9155 
219.35 60.2867 
219.4 55.9158 
219.45 49.7659 
219.5 41.4322 
219.55 35.5919 
219.6 34.1029 
219.65 37.4541 
219.7 45.6033 
219.75 51.0005 
219.8 56.1284 
219.85 58.5529 
219.9 54.6365 
219.95 45.833 
220 39.7264 
220.05 37.3286 
220.1 37.0313 
220.15 42.2139 
220.2 50.4354 
220.25 58.5281 
220.3 64.9171 
220.35 65.4602 
220.4 61.4496 
220.45 58.5386 
220.5 56.2391 
220.55 54.5894 
220.6 52.0908 
220.65 47.6323 
220.7 43.4735 
220.75 40.4746 
220.8 38.8516 
220.85 36.813 
220.9 36.3923 
220.95 35.0259 
221 30.6789 
221.05 26.0054 
221.1 21.8599 
221.15 21.6291 
221.2 28.7447 
221.25 38.3366 
221.3 45.3476 
221.35 47.9182 
221.4 46.6807 
221.45 45.3762 
221.5 45.1196 
221.55 41.6541 
221.6 33.2086 
221.65 26.4353 
221.7 24.7073 
221.75 25.478 
221.8 30.4384 
221.85 39.3015 
221.9 45.6379 
221.95 49.9334 
222 51.9799 
222.05 53.9237 
222.1 55.702 
222.15 55.6595 
222.2 53.709 
222.25 49.0562 
222.3 45.9611 
222.35 48.2541 
222.4 49.4672 
222.45 48.8939 
222.5 48.0481 
222.55 48.2572 
222.6 46.8841 
222.65 45.561 
222.7 44.7146 
222.75 45.7245 
222.8 48.6608 
222.85 51.7155 
222.9 52.8626 
222.95 51.905 
223 47.9242 
223.05 43.9811 
223.1 44.3118 
223.15 50.366 
223.2 60.3294 
223.25 71.3546 
223.3 77.5749 
223.35 78.827 
223.4 76.9279 
223.45 75.5693 
223.5 75.373 
223.55 74.8208 
223.6 73.4623 
223.65 69.2926 
223.7 61.7827 
223.75 58.0896 
223.8 56.9221 
223.85 57.9924 
223.9 60.7112 
223.95 64.7957 
224 65.321 
224.05 60.9862 
224.1 55.1712 
224.15 52.1009 
224.2 51.2479 
224.25 50.6744 
224.3 49.2202 
224.35 47.9943 
224.4 48.9661 
224.45 51.5792 
224.5 55.7007 
224.55 60.824 
224.6 65.4874 
224.65 67.815 
224.7 70.0224 
224.75 70.0268 
224.8 66.4908 
224.85 60.5198 
224.9 55.0062 
224.95 53.3168 
225 53.5986 
225.05 52.4289 
225.1 50.7965 
225.15 52.0962 
225.2 57.1678 
225.25 57.136 
225.3 50.0151 
225.35 46.2077 
225.4 50.3195 
225.45 54.4416 
225.5 51.7896 
225.55 47.1081 
225.6 46.5277 
225.65 48.729 
225.7 50.3602 
225.75 52.0259 
225.8 53.969 
225.85 53.7942 
225.9 50.5136 
225.95 45.6807 
226 41.0395 
226.05 41.3772 
226.1 44.9884 
226.15 48.7816 
226.2 49.6376 
226.25 46.8358 
226.3 43.357 
226.35 40.5238 
226.4 37.536 
226.45 34.535 
226.5 32.4518 
226.55 32.4219 
226.6 33.4854 
226.65 33.7378 
226.7 33.0974 
226.75 32.4471 
226.8 32.1521 
226.85 31.4558 
226.9 30.478 
226.95 29.8875 
227 30.2704 
227.05 31.314 
227.1 32.4485 
227.15 33.2562 
227.2 34.4477 
227.25 36.0855 
227.3 36.4656 
227.35 35.3701 
227.4 34.9902 
227.45 36.4807 
227.5 37.8478 
227.55 36.9663 
227.6 36.8262 
227.65 39.3061 
227.7 43.2279 
227.75 44.7284 
227.8 45.7867 
227.85 46.5424 
227.9 45.8494 
227.95 44.9658 
228 46.7832 
228.05 52.1672 
228.1 59.8219 
228.15 63.8516 
228.2 62.6931 
228.25 58.7641 
228.3 52.7342 
228.35 49.7858 
228.4 53.3463 
228.45 58.4803 
228.5 63.216 
228.55 60.8325 
228.6 50.9041 
228.65 42.811 
228.7 38.576 
228.75 42.2509 
228.8 49.6539 
228.85 52.1852 
228.9 50.0087 
228.95 45.3902 
229 42.6629 
229.05 42.3085 
229.1 44.0016 
229.15 47.0219 
229.2 48.9159 
229.25 50.28 
229.3 51.716 
229.35 52.1951 
229.4 51.9627 
229.45 53.958 
229.5 57.5272 
229.55 57.9648 
229.6 52.9746 
229.65 44.7169 
229.7 36.8763 
229.75 31.7595 
229.8 31.6698 
229.85 34.6153 
229.9 37.4872 
229.95 38.8061 
230 38.7593 
230.05 40.4985 
230.1 43.4384 
230.15 47.804 
230.2 49.5319 
230.25 44.905 
230.3 41.8177 
230.35 43.8075 
230.4 51.0327 
230.45 58.8611 
230.5 65.9081 
230.55 73.9709 
230.6 77.7998 
230.65 74.3588 
230.7 69.2452 
230.75 64.6952 
230.8 60.2578 
230.85 54.8986 
230.9 49.5502 
230.95 45.4324 
231 41.2935 
231.05 36.7459 
231.1 33.6916 
231.15 32.9636 
231.2 33.3815 
231.25 33.893 
231.3 34.7387 
231.35 37.2001 
231.4 44.4034 
231.45 57.8793 
231.5 65.5078 
231.55 62.8177 
231.6 57.7324 
231.65 54.0951 
231.7 54.1901 
231.75 56.5846 
231.8 58.4389 
231.85 55.0866 
231.9 45.6121 
231.95 38.3888 
232 35.0398 
232.05 35.8093 
232.1 39.8779 
232.15 45.998 
232.2 55.7606 
232.25 68.7227 
232.3 78.714 
232.35 78.2466 
232.4 72.6695 
232.45 62.7817 
232.5 47.7266 
232.55 36.8222 
232.6 36.1384 
232.65 37.5932 
232.7 41.1992 
232.75 46.4094 
232.8 51.9666 
232.85 56.1393 
232.9 58.3241 
232.95 56.7299 
233 52.376 
233.05 46.6721 
233.1 40.4287 
233.15 36.3851 
233.2 34.565 
233.25 33.8006 
233.3 36.4615 
233.35 42.5033 
233.4 46.8447 
233.45 50.0538 
233.5 54.7348 
233.55 57.6586 
233.6 54.9239 
233.65 47.7062 
233.7 38.2397 
233.75 31.2816 
233.8 29.468 
233.85 30.5888 
233.9 34.1858 
233.95 38.7511 
234 42.3141 
234.05 45.3357 
234.1 48.6086 
234.15 49.0569 
234.2 43.402 
234.25 36.1604 
234.3 30.0394 
234.35 25.0688 
234.4 25.367 
234.45 27.3284 
234.5 29.1743 
234.55 31.0656 
234.6 32.8632 
234.65 33.6557 
234.7 33.085 
234.75 31.4056 
234.8 30.4811 
234.85 34.117 
234.9 40.7726 
234.95 48.4608 
235 53.5025 
235.05 55.0088 
235.1 56.9611 
235.15 59.2637 
235.2 61.7358 
235.25 62.1326 
235.3 59.5409 
235.35 55.5199 
235.4 52.5274 
235.45 51.9899 
235.5 54.2631 
235.55 58.8814 
235.6 63.8541 
235.65 65.3934 
235.7 62.4274 
235.75 60.2686 
235.8 55.1095 
235.85 43.5202 
235.9 33.9205 
235.95 31.5311 
236 33.5534 
236.05 38.5862 
236.1 43.8377 
236.15 47.3198 
236.2 53.4075 
236.25 59.7715 
236.3 56.9573 
236.35 47.7162 
236.4 41.8328 
236.45 38.8919 
236.5 40.9531 
236.55 42.9506 
236.6 41.4788 
236.65 40.1568 
236.7 41.0814 
236.75 43.008 
236.8 44.9101 
236.85 48.7776 
236.9 52.8897 
236.95 55.2304 
237 57.6649 
237.05 61.5672 
237.1 66.5016 
237.15 66.1287 
237.2 60.6482 
237.25 50.1535 
237.3 36.8925 
237.35 35.0661 
237.4 38.2681 
237.45 39.1757 
237.5 43.0515 
237.55 49.5516 
237.6 56.1526 
237.65 61.3598 
237.7 62.5558 
237.75 58.5076 
237.8 51.2342 
237.85 43.5025 
237.9 38.7145 
237.95 36.7914 
238 34.8023 
238.05 31.6062 
238.1 26.8767 
238.15 22.8725 
238.2 22.4208 
238.25 24.4677 
238.3 27.1388 
238.35 31.4118 
238.4 36.6379 
238.45 42.4817 
238.5 48.5001 
238.55 52.2189 
238.6 52.9224 
238.65 51.246 
238.7 47.3844 
238.75 40.4607 
238.8 32.6435 
238.85 31.8015 
238.9 38.1142 
238.95 46.9365 
239 55.5064 
239.05 59.5068 
239.1 58.4119 
239.15 56.1524 
239.2 55.3667 
239.25 55.3844 
239.3 54.5044 
239.35 48.6571 
239.4 38.1608 
239.45 30.0303 
239.5 25.3989 
239.55 24.2671 
239.6 29.6026 
239.65 38.3047 
239.7 43.7256 
239.75 44.6894 
239.8 39.7698 
239.85 34.2655 
239.9 33.6954 
239.95 36.7501 
240 42.538 
240.05 48.4324 
240.1 50.1795 
240.15 48.4696 
240.2 47.1051 
240.25 46.854 
240.3 45.2938 
240.35 39.6779 
240.4 31.891 
240.45 27.505 
240.5 29.0608 
240.55 31.6608 
240.6 31.2396 
240.65 31.8549 
240.7 35.5077 
240.75 40.7957 
240.8 46.6444 
240.85 48.8445 
240.9 45.5016 
240.95 39.1598 
241 31.9533 
241.05 27.5488 
241.1 30.3847 
241.15 36.4815 
241.2 39.3065 
241.25 38.7261 
241.3 37.359 
241.35 40.1051 
241.4 46.2276 
241.45 50.6563 
241.5 53.2228 
241.55 55.9054 
241.6 58.1004 
241.65 59.0623 
241.7 59.935 
241.75 62.497 
241.8 65.5094 
241.85 66.6756 
241.9 66.9085 
241.95 68.7098 
242 70.8937 
242.05 73.3649 
242.1 78.1011 
242.15 81.4442 
242.2 78.6237 
242.25 70.1499 
242.3 62.3458 
242.35 60.0841 
242.4 59.7196 
242.45 61.0969 
242.5 65.096 
242.55 72.3104 
242.6 79.7622 
242.65 83.7662 
242.7 83.0294 
242.75 75.7595 
242.8 66.6558 
242.85 63.1101 
242.9 65.5217 
242.95 71.5639 
243 75.6235 
243.05 76.6782 
243.1 73.987 
243.15 66.1968 
243.2 60.6692 
243.25 60.8838 
243.3 63.8284 
243.35 65.4398 
243.4 61.335 
243.45 54.5554 
243.5 52.8573 
243.55 55.9363 
243.6 59.9451 
243.65 63.3584 
243.7 68.3971 
243.75 71.4652 
243.8 66.6555 
243.85 59.3244 
243.9 55.1128 
243.95 55.6798 
244 61.353 
244.05 67.818 
244.1 71.7409 
244.15 73.7954 
244.2 73.295 
244.25 69.6691 
244.3 64.4788 
244.35 61.3146 
244.4 61.1328 
244.45 62.4728 
244.5 62.8597 
244.55 61.6644 
244.6 59.3758 
244.65 54.5787 
244.7 49.9449 
244.75 48.349 
244.8 49.5322 
244.85 52.5465 
244.9 53.273 
244.95 51.2333 
245 48.7784 
245.05 47.0399 
245.1 45.9526 
245.15 45.0494 
245.2 45.1216 
245.25 45.759 
245.3 45.5119 
245.35 45.271 
245.4 47.8572 
245.45 50.5044 
245.5 50.1912 
245.55 48.1511 
245.6 47.1869 
245.65 49.4473 
245.7 53.3371 
245.75 54.4246 
245.8 53.168 
245.85 51.0262 
245.9 48.8944 
245.95 48.4485 
246 47.6275 
246.05 45.0855 
246.1 42.524 
246.15 40.8009 
246.2 40.5285 
246.25 41.6835 
246.3 43.9311 
246.35 46.8401 
246.4 49.3735 
246.45 51.1445 
246.5 50.8962 
246.55 49.8877 
246.6 49.1721 
246.65 50.3538 
246.7 53.8389 
246.75 55.4749 
246.8 55.5271 
246.85 55.0914 
246.9 54.1702 
246.95 54.3137 
247 55.2725 
247.05 57.0956 
247.1 58.0461 
247.15 53.4439 
247.2 46.878 
247.25 44.3273 
247.3 48.5469 
247.35 57.4786 
247.4 62.8028 
247.45 63.6899 
247.5 62.4896 
247.55 60.812 
247.6 59.9499 
247.65 59.4539 
247.7 57.7367 
247.75 54.6261 
247.8 50.8451 
247.85 46.9281 
247.9 42.9896 
247.95 43.7099 
248 50.6354 
248.05 56.9191 
248.1 58.4407 
248.15 51.4814 
248.2 41.889 
248.25 34.7761 
248.3 29.6047 
248.35 31.7791 
248.4 39.8456 
248.45 46.1584 
248.5 50.8365 
248.55 53.4809 
248.6 50.5863 
248.65 45.8828 
248.7 40.9826 
248.75 36.577 
248.8 35.1999 
248.85 35.087 
248.9 35.0685 
248.95 33.5278 
249 30.6706 
249.05 30.5048 
249.1 34.3354 
249.15 40.8366 
249.2 48.9289 
249.25 54.7994 
249.3 58.1498 
249.35 61.7996 
249.4 67.1386 
249.45 71.4237 
249.5 70.4565 
249.55 67.003 
249.6 64.5963 
249.65 66.2273 
249.7 68.7333 
249.75 68.7321 
249.8 68.5249 
249.85 71.0493 
249.9 75.0115 
249.95 73.279 
250 64.0228 
250.05 52.6462 
250.1 49.707 
250.15 54.2377 
250.2 58.9294 
250.25 63.4132 
250.3 66.3587 
250.35 67.9681 
250.4 66.6507 
250.45 59.6897 
250.5 51.3279 
250.55 45.8221 
250.6 40.6651 
250.65 39.2543 
250.7 45.9258 
250.75 53.9082 
250.8 59.5792 
250.85 65.3273 
250.9 67.0409 
250.95 64.1441 
251 57.8876 
251.05 52.1575 
251.1 51.5364 
251.15 52.7766 
251.2 52.4004 
251.25 50.4968 
251.3 45.958 
251.35 41.1522 
251.4 38.9936 
251.45 37.538 
251.5 35.9131 
251.55 34.3377 
251.6 34.5518 
251.65 36.723 
251.7 38.4754 
251.75 38.373 
251.8 37.7805 
251.85 37.7169 
251.9 40.7188 
251.95 46.518 
252 49.0839 
252.05 48.001 
252.1 45.8126 
252.15 42.3476 
252.2 38.1081 
252.25 34.8602 
252.3 33.608 
252.35 34.901 
252.4 37.7313 
252.45 40.3596 
252.5 43.7485 
252.55 46.6354 
252.6 45.1812 
252.65 41.5258 
252.7 38.2311 
252.75 34.7415 
252.8 32.3775 
252.85 31.7312 
252.9 35.7979 
252.95 44.6494 
253 52.1288 
253.05 57.0608 
253.1 58.692 
253.15 57.3375 
253.2 55.4349 
253.25 53.9193 
253.3 53.3516 
253.35 53.6816 
253.4 53.5255 
253.45 51.8424 
253.5 49.6539 
253.55 48.5454 
253.6 49.7888 
253.65 52.1664 
253.7 53.4184 
253.75 53.3947 
253.8 52.3814 
253.85 53.3372 
253.9 56.9494 
253.95 58.2197 
254 54.8988 
254.05 52.4998 
254.1 53.5527 
254.15 55.8482 
254.2 60.5999 
254.25 64.8793 
254.3 65.504 
254.35 64.1824 
254.4 62.6199 
254.45 60.2618 
254.5 57.5813 
254.55 55.1535 
254.6 54.156 
254.65 56.2039 
254.7 58.1038 
254.75 56.7887 
254.8 52.9953 
254.85 49.632 
254.9 49.4439 
254.95 53.093 
255 64.9797 
255.05 79.8682 
255.1 86.1564 
255.15 87.9124 
255.2 84.2663 
255.25 79.6161 
255.3 84.3975 
255.35 91.2461 
255.4 92.1609 
255.45 85.2039 
255.5 81.1164 
255.55 82.6253 
255.6 81.4961 
255.65 78.6086 
255.7 79.7132 
255.75 86.9004 
255.8 97.9124 
255.85 103.274 
255.9 99.4382 
255.95 96.2874 
256 95.1007 
256.05 91.3504 
256.1 82.0921 
256.15 71.6826 
256.2 66.161 
256.25 66.1575 
256.3 71.7906 
256.35 80.7817 
256.4 90.0645 
256.45 100.943 
256.5 116.121 
256.55 124.582 
256.6 121.8 
256.65 118.11 
256.7 117.285 
256.75 118.299 
256.8 121.976 
256.85 129.302 
256.9 138.357 
256.95 139.282 
257 134.83 
257.05 132.838 
257.1 133.531 
257.15 137 
257.2 142.232 
257.25 149.598 
257.3 153.732 
257.35 139.983 
257.4 110.329 
257.45 89.1185 
257.5 76.9752 
257.55 72.4877 
257.6 80.3749 
257.65 95.1583 
257.7 109.442 
257.75 122.865 
257.8 137.811 
257.85 148.201 
257.9 154.18 
257.95 163.195 
258 180.152 
258.05 197.289 
258.1 196.979 
258.15 162.072 
258.2 125.66 
258.25 124.526 
258.3 130.545 
258.35 117.84 
258.4 92.7648 
258.45 75.4526 
258.5 70.8489 
258.55 73.5905 
258.6 86.4862 
258.65 102.608 
258.7 114.12 
258.75 125.024 
258.8 149.366 
258.85 180.595 
258.9 195.078 
258.95 180.711 
259 145.813 
259.05 120.657 
259.1 116.885 
259.15 118.318 
259.2 111.217 
259.25 96.6102 
259.3 83.6252 
259.35 82.4229 
259.4 101.636 
259.45 118.844 
259.5 119.573 
259.55 115.789 
259.6 105.237 
259.65 88.3756 
259.7 69.7494 
259.75 55.1097 
259.8 46.9951 
259.85 49.7692 
259.9 59.344 
259.95 68.8695 
260 81.7175 
260.05 96.7445 
260.1 109.895 
260.15 118.902 
260.2 123.967 
260.25 121.667 
260.3 116.058 
260.35 110.829 
260.4 100.818 
260.45 87.0076 
260.5 74.4904 
260.55 65.7015 
260.6 60.9312 
260.65 62.6058 
260.7 72.7756 
260.75 85.1223 
260.8 94.8311 
260.85 100.668 
260.9 101.092 
260.95 95.24 
261 84.5089 
261.05 71.1979 
261.1 62.8354 
261.15 62.4113 
261.2 64.1748 
261.25 65.8433 
261.3 66.5197 
261.35 72.2207 
261.4 86.2409 
261.45 105.025 
261.5 119.335 
261.55 120.799 
261.6 113.145 
261.65 97.0427 
261.7 82.106 
261.75 85.6835 
261.8 100.922 
261.85 117.2 
261.9 126.106 
261.95 122.667 
262 115.377 
262.05 109.214 
262.1 109.583 
262.15 123.355 
262.2 133.709 
262.25 134.175 
262.3 136.033 
262.35 134.729 
262.4 127.892 
262.45 112.644 
262.5 94.3149 
262.55 88.5071 
262.6 92.1759 
262.65 95.911 
262.7 94.8729 
262.75 91.0263 
262.8 91.3135 
262.85 94.9747 
262.9 89.2578 
262.95 77.485 
263 69.1012 
263.05 64.4641 
263.1 68.2753 
263.15 81.0018 
263.2 99.572 
263.25 120.699 
263.3 143.329 
263.35 164.784 
263.4 174.042 
263.45 175.001 
263.5 180.975 
263.55 199.555 
263.6 222.019 
263.65 242.733 
263.7 265.407 
263.75 288.789 
263.8 289.762 
263.85 272.45 
263.9 260.101 
263.95 246.994 
264 236.997 
264.05 238.846 
264.1 256.285 
264.15 297.519 
264.2 343.727 
264.25 357.409 
264.3 337.11 
264.35 301.607 
264.4 273.719 
264.45 259.412 
264.5 247.78 
264.55 238.257 
264.6 235.396 
264.65 225.673 
264.7 206.17 
264.75 187.627 
264.8 183.518 
264.85 194.887 
264.9 207.006 
264.95 215.538 
