# ATLAS3, shifted to air wavelengths.
# It is ATLAS2 for wavelengths larger than 407.8 and smaller then 419.90
# It is modtran for wavelengths larger than 419.90
# Source: Bernhard Mayer, IFU, and modtran version 3.5
# two columns, wavelength [nm] and irradiance [mW/ (m2 nm)]
#
200.00 7.12904
200.05 7.02787
200.10 7.22708
200.15 7.61477
200.20 7.63340
200.25 7.64274
200.30 7.70706
200.35 7.54931
200.40 7.30337
200.45 7.40346
200.50 7.69798
200.55 8.06502
200.60 7.91082
200.65 7.72579
200.70 7.49186
200.75 7.53993
200.80 7.66413
200.85 7.70170
200.90 7.85688
200.95 8.12606
201.00 8.13700
201.05 7.65754
201.10 7.27927
201.15 7.50969
201.20 8.25917
201.25 8.69726
201.30 8.76831
201.35 8.49707
201.40 8.18975
201.45 8.05515
201.50 8.02096
201.55 7.98372
201.60 8.11172
201.65 8.38751
201.70 8.77463
201.75 9.03862
201.80 9.20068
201.85 8.92542
201.90 8.67895
201.95 8.73055
202.00 8.74592
202.05 8.53998
202.10 8.21126
202.15 7.86119
202.20 7.81148
202.25 8.28365
202.30 8.89443
202.35 9.09852
202.40 8.91638
202.45 8.15664
202.50 7.14345
202.55 6.53365
202.60 6.26885
202.65 7.13754
202.70 8.42686
202.75 9.05435
202.80 9.27542
202.85 9.22798
202.90 9.00461
202.95 8.98137
203.00 9.26514
203.05 9.79783
203.10 10.2583
203.15 10.2399
203.20 9.94057
203.25 9.40535
203.30 8.63998
203.35 8.15877
203.40 8.15730
203.45 8.45668
203.50 9.17963
203.55 9.89123
203.60 10.2025
203.65 10.2446
203.70 10.1993
203.75 10.2192
203.80 10.0477
203.85 9.49379
203.90 8.95581
203.95 8.81615
204.00 9.08186
204.05 9.70992
204.10 10.2852
204.15 10.8278
204.20 11.2145
204.25 11.2968
204.30 11.0012
204.35 10.3032
204.40 9.96895
204.45 10.0619
204.50 10.4444
204.55 11.1675
204.60 11.4586
204.65 11.1189
204.70 10.5005
204.75 10.0663
204.80 10.3604
204.85 10.6601
204.90 10.6871
204.95 10.6591
205.00 10.9634
205.05 11.1006
205.10 11.0408
205.15 11.0673
205.20 11.1945
205.25 11.3560
205.30 11.5157
205.35 11.5250
205.40 11.3754
205.45 11.0352
205.50 10.5914
205.55 9.92017
205.60 10.2834
205.65 11.1509
205.70 11.4125
205.75 11.0109
205.80 10.0521
205.85 9.95352
205.90 10.6539
205.95 11.3585
206.00 11.5932
206.05 11.6067
206.10 11.3479
206.15 10.6379
206.20 10.0249
206.25 10.3877
206.30 11.1953
206.35 11.4627
206.40 11.4736
206.45 11.7217
206.50 11.7550
206.55 11.3652
206.60 11.2162
206.65 11.7026
206.70 12.2405
206.75 12.3479
206.80 12.2611
206.85 11.9760
206.90 11.8159
206.95 11.8218
207.00 11.9959
207.05 12.4622
207.10 12.7951
207.15 12.6275
207.20 12.4464
207.25 12.4600
207.30 12.9409
207.35 13.3810
207.40 13.4104
207.45 13.4255
207.50 13.6418
207.55 13.9580
207.60 14.1832
207.65 14.4134
207.70 14.3308
207.75 14.0364
207.80 13.6274
207.85 13.4692
207.90 13.7004
207.95 14.2966
208.00 14.5259
208.05 14.0996
208.10 13.7046
208.15 13.3909
208.20 13.1084
208.25 13.1935
208.30 13.7386
208.35 14.1019
208.40 13.6072
208.45 13.2040
208.50 13.7367
208.55 15.7431
208.60 17.1165
208.65 17.3560
208.70 17.1104
208.75 17.4527
208.80 19.5558
208.85 20.0436
208.90 18.3427
208.95 16.3598
209.00 16.3879
209.05 17.0347
209.10 18.0300
209.15 18.6407
209.20 19.9418
209.25 23.3540
209.30 24.9181
209.35 23.3002
209.40 18.8180
209.45 18.5593
209.50 20.9772
209.55 23.4632
209.60 24.7738
209.65 23.5757
209.70 23.3374
209.75 25.1546
209.80 27.0813
209.85 24.9955
209.90 22.9571
209.95 20.9038
210.00 19.8329
210.05 22.4486
210.10 27.9970
210.15 32.9549
210.20 34.5236
210.25 28.8476
210.30 22.2180
210.35 18.1671
210.40 21.9364
210.45 31.2293
210.50 37.5055
210.55 39.9633
210.60 37.8454
210.65 34.9153
210.70 33.8173
210.75 32.5593
210.80 28.1161
210.85 23.1379
210.90 20.0515
210.95 20.2582
211.00 21.0723
211.05 25.1084
211.10 32.7300
211.15 36.6311
211.20 40.6193
211.25 38.6951
211.30 31.6149
211.35 29.0894
211.40 28.5990
211.45 26.5377
211.50 25.8164
211.55 31.9485
211.60 38.7044
211.65 43.6388
211.70 46.0906
211.75 43.0451
211.80 38.3603
211.85 35.3215
211.90 39.3802
211.95 47.6816
212.00 52.0384
212.05 51.4094
212.10 42.7385
212.15 34.1430
212.20 30.9940
212.25 28.7467
212.30 24.3836
212.35 17.2115
212.40 13.9410
212.45 13.5321
212.50 17.5791
212.55 26.4829
212.60 32.7079
212.65 36.1465
212.70 37.4713
212.75 37.3037
212.80 37.3945
212.85 37.9255
212.90 37.8465
212.95 33.2016
213.00 27.2146
213.05 25.0669
213.10 27.0977
213.15 30.3814
213.20 30.1654
213.25 29.4622
213.30 30.7445
213.35 32.8774
213.40 30.5062
213.45 26.7285
213.50 25.4526
213.55 27.8133
213.60 32.4625
213.65 37.4226
213.70 43.1506
213.75 42.2283
213.80 33.2766
213.85 25.5757
213.90 22.7134
213.95 25.3020
214.00 35.1157
214.05 47.5134
214.10 52.9469
214.15 52.7041
214.20 49.6062
214.25 47.8933
214.30 49.3754
214.35 50.2385
214.40 48.7299
214.45 44.7898
214.50 40.0206
214.55 35.9583
214.60 34.5961
214.65 34.0242
214.70 34.6245
214.75 35.8110
214.80 38.0618
214.85 42.2863
214.90 45.2738
214.95 47.9886
215.00 45.8350
215.05 34.2761
215.10 30.8179
215.15 33.1652
215.20 35.8540
215.25 39.8311
215.30 46.4046
215.35 50.3982
215.40 49.3230
215.45 43.7332
215.50 40.0361
215.55 37.5627
215.60 35.4434
215.65 32.2267
215.70 25.5998
215.75 22.9467
215.80 21.8969
215.85 22.0810
215.90 25.1300
215.95 30.2448
216.00 36.6257
216.05 43.0312
216.10 45.1462
216.15 41.5435
216.20 39.4115
216.25 40.0923
216.30 40.9371
216.35 38.4552
216.40 37.2442
216.45 37.7051
216.50 35.6586
216.55 28.3748
216.60 22.0882
216.65 18.9680
216.70 20.6040
216.75 27.8613
216.80 32.8796
216.85 32.2614
216.90 29.6783
216.95 28.6363
217.00 33.6437
217.05 37.2766
217.10 37.3362
217.15 37.6185
217.20 39.9022
217.25 41.6585
217.30 40.4679
217.35 34.0703
217.40 28.5007
217.45 25.6387
217.50 25.9729
217.55 29.6462
217.60 35.4039
217.65 36.0374
217.70 33.0077
217.75 28.5489
217.80 26.7930
217.85 32.8193
217.90 40.7730
217.95 50.0197
218.00 55.0534
218.05 56.0324
218.10 56.7798
218.15 57.7071
218.20 59.6533
218.25 60.8847
218.30 57.2268
218.35 49.1252
218.40 41.6917
218.45 43.1627
218.50 50.1185
218.55 54.3327
218.60 49.6541
218.65 33.5131
218.70 25.3890
218.75 29.6313
218.80 39.8926
218.85 43.2651
218.90 38.4514
218.95 38.2131
219.00 43.9749
219.05 47.3069
219.10 43.7536
219.15 39.3057
219.20 39.3468
219.25 51.4464
219.30 64.4252
219.35 67.0128
219.40 63.1473
219.45 53.3104
219.50 42.9843
219.55 36.2833
219.60 33.8958
219.65 37.2967
219.70 46.2128
219.75 54.5373
219.80 59.2625
219.85 61.8012
219.90 59.5746
219.95 54.2205
220.00 46.2055
220.05 35.3766
220.10 32.7017
220.15 41.3831
220.20 50.6799
220.25 59.5055
220.30 67.2208
220.35 69.7504
220.40 65.8436
220.45 61.0506
220.50 59.3188
220.55 60.0286
220.60 55.1444
220.65 50.0567
220.70 45.1186
220.75 40.7761
220.80 35.2732
220.85 34.1708
220.90 38.0778
220.95 38.4400
221.00 30.2129
221.05 24.6408
221.10 21.2431
221.15 22.6635
221.20 31.0417
221.25 40.9127
221.30 49.0548
221.35 50.3179
221.40 45.2180
221.45 45.8720
221.50 48.5080
221.55 45.7349
221.60 35.2838
221.65 26.1356
221.70 23.8717
221.75 25.5605
221.80 31.2680
221.85 38.3707
221.90 46.1982
221.95 52.9604
222.00 54.0532
222.05 54.5145
222.10 57.5725
222.15 59.5246
222.20 56.6335
222.25 49.8930
222.30 45.4983
222.35 48.7635
222.40 53.8139
222.45 52.2650
222.50 50.3332
222.55 50.4010
222.60 49.3391
222.65 45.3404
222.70 43.2650
222.75 43.5635
222.80 48.7107
222.85 56.2057
222.90 57.1347
222.95 54.7692
223.00 50.5634
223.05 45.9353
223.10 43.6872
223.15 45.7780
223.20 56.0002
223.25 73.0482
223.30 83.7696
223.35 85.2795
223.40 81.6694
223.45 76.3028
223.50 78.0911
223.55 80.9370
223.60 79.7552
223.65 73.5893
223.70 67.3582
223.75 63.2267
223.80 57.8659
223.85 55.0711
223.90 64.7389
223.95 71.9077
224.00 72.3736
224.05 66.2336
224.10 55.9976
224.15 53.4988
224.20 53.5403
224.25 53.7293
224.30 52.1408
224.35 49.3978
224.40 46.7575
224.45 48.3799
224.50 57.4754
224.55 64.6752
224.60 66.0370
224.65 66.6890
224.70 70.8655
224.75 75.5868
224.80 75.1002
224.85 66.4848
224.90 54.0487
224.95 53.7364
225.00 55.9870
225.05 54.9092
225.10 51.6327
225.15 53.3828
225.20 60.8499
225.25 63.7198
225.30 55.8802
225.35 45.7675
225.40 48.6011
225.45 55.7171
225.50 56.4812
225.55 50.3735
225.60 46.0747
225.65 47.5526
225.70 51.6738
225.75 54.2445
225.80 53.5407
225.85 55.8331
225.90 57.6850
225.95 49.7362
226.00 39.4726
226.05 38.5484
226.10 43.0014
226.15 48.9767
226.20 52.1892
226.25 50.5957
226.30 47.2061
226.35 42.6767
226.40 39.2223
226.45 35.6571
226.50 34.0650
226.55 33.1620
226.60 34.5750
226.65 35.5378
226.70 34.7214
226.75 33.6106
226.80 33.2243
226.85 32.6663
226.90 31.5526
226.95 31.2466
227.00 31.4811
227.05 31.8018
227.10 33.1291
227.15 34.1613
227.20 35.6005
227.25 37.5183
227.30 38.3294
227.35 36.8038
227.40 35.4374
227.45 38.2234
227.50 39.9296
227.55 37.6649
227.60 37.2414
227.65 40.6921
227.70 44.8599
227.75 46.3957
227.80 46.9111
227.85 47.9211
227.90 48.6476
227.95 47.4130
228.00 46.4781
228.05 51.5585
228.10 59.8036
228.15 63.9871
228.20 66.4638
228.25 65.2737
228.30 57.2075
228.35 51.0752
228.40 51.7831
228.45 57.4714
228.50 66.9541
228.55 67.7368
228.60 60.3256
228.65 48.7735
228.70 39.5727
228.75 40.1479
228.80 47.8434
228.85 54.2402
228.90 54.1671
228.95 47.9971
229.00 43.6644
229.05 42.8041
229.10 44.9252
229.15 48.1625
229.20 49.7524
229.25 50.9555
229.30 52.9798
229.35 54.1241
229.40 53.1027
229.45 52.9562
229.50 56.9223
229.55 63.1264
229.60 62.8777
229.65 55.1840
229.70 42.7722
229.75 33.2992
229.80 32.0227
229.85 34.0228
229.90 38.2261
229.95 41.1153
230.00 40.9419
230.05 39.9460
230.10 42.6481
230.15 49.4391
230.20 52.6920
230.25 50.5902
230.30 45.3276
230.35 44.4327
230.40 51.2246
230.45 58.5387
230.50 66.1409
230.55 76.1881
230.60 80.8359
230.65 78.6824
230.70 75.1185
230.75 69.0672
230.80 62.4271
230.85 56.0603
230.90 54.8496
230.95 49.2644
231.00 43.8397
231.05 39.6102
231.10 35.6264
231.15 34.6591
231.20 35.2367
231.25 35.7023
231.30 34.7963
231.35 37.0423
231.40 45.1341
231.45 56.6317
231.50 67.7827
231.55 68.9421
231.60 62.8391
231.65 56.5743
231.70 55.3116
231.75 55.9681
231.80 59.9136
231.85 60.4039
231.90 53.3449
231.95 44.8157
232.00 37.2492
232.05 37.0778
232.10 40.1616
232.15 42.5825
232.20 51.6386
232.25 67.4885
232.30 81.4895
232.35 87.0111
232.40 83.8960
232.45 70.9108
232.50 54.1475
232.55 42.4723
232.60 37.6672
232.65 38.0542
232.70 40.1698
232.75 42.9545
232.80 49.1656
232.85 56.6139
232.90 61.6113
232.95 61.0855
233.00 57.5231
233.05 52.8024
233.10 45.2510
233.15 39.1540
233.20 37.3341
233.25 35.0700
233.30 35.0191
233.35 41.0498
233.40 46.6861
233.45 50.2229
233.50 55.8996
233.55 62.2947
233.60 63.2831
233.65 55.8453
233.70 42.8847
233.75 32.1846
233.80 28.0230
233.85 28.2032
233.90 31.8394
233.95 37.4515
234.00 41.9204
234.05 45.0444
234.10 48.3893
234.15 52.6026
234.20 51.7931
234.25 46.1095
234.30 36.8904
234.35 26.8343
234.40 24.3156
234.45 26.8292
234.50 29.9498
234.55 31.1962
234.60 33.3733
234.65 36.5421
234.70 37.5574
234.75 33.7268
234.80 29.4827
234.85 30.1604
234.90 36.1511
234.95 47.5336
235.00 53.6181
235.05 54.5524
235.10 54.5186
235.15 57.0416
235.20 62.3964
235.25 66.2705
235.30 67.2186
235.35 63.9194
235.40 55.3601
235.45 48.3071
235.50 45.6973
235.55 52.3802
235.60 63.9011
235.65 67.9053
235.70 67.4852
235.75 66.7193
235.80 63.1855
235.85 51.9771
235.90 40.4341
235.95 33.9575
236.00 30.8337
236.05 35.3235
236.10 42.6471
236.15 45.7720
236.20 49.6746
236.25 58.1208
236.30 63.9953
236.35 60.1135
236.40 49.8243
236.45 41.2793
236.50 39.3793
236.55 42.7277
236.60 44.8344
236.65 42.1365
236.70 40.8388
236.75 42.8569
236.80 44.6649
236.85 47.2604
236.90 51.9106
236.95 56.5616
237.00 57.7055
237.05 58.8346
237.10 64.4608
237.15 70.1631
237.20 70.9399
237.25 62.3730
237.30 46.5157
237.35 36.0445
237.40 36.1156
237.45 39.4211
237.50 42.7333
237.55 48.2460
237.60 54.3297
237.65 61.9417
237.70 67.9976
237.75 65.2952
237.80 58.3065
237.85 48.5660
237.90 41.5996
237.95 39.8450
238.00 39.9971
238.05 37.6226
238.10 31.7758
238.15 25.8848
238.20 23.3978
238.25 22.8950
238.30 24.7737
238.35 29.0095
238.40 34.6520
238.45 39.4146
238.50 45.4585
238.55 52.7641
238.60 56.2858
238.65 56.4302
238.70 54.2671
238.75 46.3046
238.80 35.7955
238.85 30.0961
238.90 31.0133
238.95 41.3976
239.00 55.0104
239.05 62.8107
239.10 63.8593
239.15 59.4497
239.20 57.5412
239.25 58.5784
239.30 58.1673
239.35 53.8756
239.40 46.3212
239.45 38.6327
239.50 30.8475
239.55 25.0103
239.60 27.0281
239.65 33.9224
239.70 40.3664
239.75 46.2255
239.80 46.9390
239.85 41.1999
239.90 35.4054
239.95 33.7710
240.00 40.5061
240.05 49.8415
240.10 53.2968
240.15 52.4750
240.20 50.0157
240.25 49.3744
240.30 49.7456
240.35 48.1604
240.40 39.1909
240.45 28.7658
240.50 27.3880
240.55 31.8063
240.60 34.1643
240.65 33.1009
240.70 34.2244
240.75 39.4938
240.80 46.9100
240.85 50.2258
240.90 49.5714
240.95 47.5425
241.00 40.1417
241.05 30.9286
241.10 28.8215
241.15 33.8307
241.20 38.7699
241.25 41.7044
241.30 39.7476
241.35 39.0421
241.40 43.5444
241.45 50.2526
241.50 54.9089
241.55 56.5813
241.60 58.6779
241.65 61.9422
241.70 62.4316
241.75 61.8198
241.80 64.9736
241.85 69.4115
241.90 69.5753
241.95 69.8338
242.00 72.6506
242.05 75.0296
242.10 78.0202
242.15 81.9973
242.20 84.8065
242.25 81.1218
242.30 70.5103
242.35 63.7206
242.40 62.1646
242.45 62.0307
242.50 64.4081
242.55 69.9062
242.60 76.8771
242.65 84.6915
242.70 88.4127
242.75 81.5588
242.80 73.7548
242.85 68.6430
242.90 65.8471
242.95 70.3127
243.00 75.7552
243.05 78.0474
243.10 78.5774
243.15 73.6888
243.20 66.1434
243.25 61.7033
243.30 61.9378
243.35 66.3708
243.40 68.5885
243.45 61.8633
243.50 53.5620
243.55 54.5832
243.60 58.7200
243.65 61.2763
243.70 66.1783
243.75 72.9577
243.80 71.9662
243.85 66.4376
243.90 61.0466
243.95 56.6309
244.00 60.7817
244.05 68.0169
244.10 73.6119
244.15 77.2912
244.20 78.7883
244.25 77.2022
244.30 71.8640
244.35 65.1744
244.40 62.5709
244.45 63.9679
244.50 65.2893
244.55 64.6954
244.60 62.2408
244.65 58.6147
244.70 54.9240
244.75 52.2001
244.80 49.8189
244.85 51.6946
244.90 55.2185
244.95 54.9559
245.00 52.0353
245.05 49.5719
245.10 48.1513
245.15 46.7970
245.20 45.8092
245.25 46.8231
245.30 47.1329
245.35 46.5096
245.40 47.1397
245.45 50.3284
245.50 53.0545
245.55 52.1718
245.60 49.5068
245.65 48.7668
245.70 51.0476
245.75 54.5032
245.80 56.7141
245.85 54.0792
245.90 50.9133
245.95 50.7148
246.00 50.8153
246.05 48.8405
246.10 46.2315
246.15 44.2297
246.20 41.3621
246.25 39.5836
246.30 41.8878
246.35 46.3458
246.40 49.7280
246.45 52.3554
246.50 52.4679
246.55 51.7293
246.60 51.2602
246.65 50.9795
246.70 53.2604
246.75 56.3080
246.80 57.3621
246.85 57.5779
246.90 57.1908
246.95 56.0210
247.00 55.1707
247.05 56.1454
247.10 60.3625
247.15 59.7096
247.20 54.0259
247.25 47.6185
247.30 44.1056
247.35 53.8161
247.40 63.9566
247.45 65.5145
247.50 64.8029
247.55 64.0831
247.60 62.5245
247.65 60.6834
247.70 60.0112
247.75 58.6936
247.80 54.9005
247.85 51.9086
247.90 47.5456
247.95 43.9565
248.00 47.4542
248.05 55.6253
248.10 60.8880
248.15 58.2677
248.20 48.8274
248.25 39.3217
248.30 33.7898
248.35 30.1050
248.40 36.6411
248.45 45.0338
248.50 50.0088
248.55 55.7201
248.60 54.8603
248.65 51.2203
248.70 47.4488
248.75 40.9994
248.80 35.8022
248.85 35.7300
248.90 36.8612
248.95 36.2608
249.00 33.1126
249.05 30.3086
249.10 30.7290
249.15 36.1420
249.20 44.5930
249.25 51.6718
249.30 55.5409
249.35 57.2670
249.40 62.3301
249.45 69.5855
249.50 74.5871
249.55 73.1733
249.60 67.3013
249.65 65.3787
249.70 68.4738
249.75 70.5035
249.80 69.0971
249.85 68.5245
249.90 71.5298
249.95 75.5030
250.00 76.1500
250.05 64.4403
250.10 49.8788
250.15 47.3926
250.20 53.6237
250.25 61.4225
250.30 65.8104
250.35 68.0829
250.40 70.9431
250.45 69.7284
250.50 63.0649
250.55 55.6038
250.60 47.9738
250.65 41.1563
250.70 39.0450
250.75 44.4024
250.80 53.8325
250.85 62.9725
250.90 67.8032
250.95 69.2658
251.00 68.1518
251.05 61.1746
251.10 53.4096
251.15 53.0020
251.20 54.5541
251.25 54.7189
251.30 51.8762
251.35 47.4952
251.40 42.7066
251.45 39.1816
251.50 39.1920
251.55 38.1167
251.60 35.2574
251.65 35.0323
251.70 38.1016
251.75 40.3436
251.80 40.2643
251.85 39.7545
251.90 39.2332
251.95 42.1645
252.00 48.1029
252.05 52.1218
252.10 52.2950
252.15 48.5770
252.20 43.6397
252.25 39.2657
252.30 36.3825
252.35 35.5028
252.40 35.8933
252.45 37.6504
252.50 42.0415
252.55 46.8246
252.60 49.3803
252.65 49.7503
252.70 46.6011
252.75 40.4576
252.80 35.9469
252.85 33.8528
252.90 32.6200
252.95 37.4217
253.00 45.6183
253.05 53.1144
253.10 60.2842
253.15 62.0586
253.20 60.0102
253.25 58.0373
253.30 57.3228
253.35 56.6490
253.40 56.6782
253.45 56.9824
253.50 55.2443
253.55 52.2393
253.60 50.9264
253.65 52.0664
253.70 53.8745
253.75 57.0759
253.80 57.2701
253.85 54.3254
253.90 54.6418
253.95 59.8701
254.00 62.0080
254.05 57.2832
254.10 53.8235
254.15 55.1528
254.20 58.5407
254.25 63.1582
254.30 68.2737
254.35 69.4536
254.40 67.4037
254.45 64.5117
254.50 62.5366
254.55 60.0226
254.60 55.9744
254.65 55.9841
254.70 59.7457
254.75 62.1066
254.80 60.0226
254.85 54.0315
254.90 49.3788
254.95 49.2501
255.00 55.1060
255.05 66.9730
255.10 79.0009
255.15 88.3209
255.20 94.1826
255.25 87.5384
255.30 81.6688
255.35 87.5715
255.40 95.0118
255.45 94.9658
255.50 86.9024
255.55 82.5621
255.60 84.6683
255.65 84.4597
255.70 80.5222
255.75 80.7128
255.80 87.0150
255.85 97.8443
255.90 105.657
255.95 103.413
256.00 98.3326
256.05 96.8804
256.10 93.5623
256.15 85.2573
256.20 76.4434
256.25 68.7746
256.30 66.1453
256.35 71.4608
256.40 80.0574
256.45 88.7708
256.50 101.217
256.55 118.526
256.60 128.376
256.65 126.362
256.70 120.936
256.75 119.251
256.80 119.818
256.85 119.886
256.90 126.803
256.95 137.728
257.00 142.529
257.05 138.411
257.10 132.450
257.15 133.877
257.20 136.271
257.25 137.892
257.30 147.443
257.35 153.785
257.40 145.470
257.45 125.969
257.50 101.631
257.55 79.3285
257.60 70.0907
257.65 78.8106
257.70 93.2001
257.75 107.449
257.80 124.222
257.85 135.329
257.90 142.046
257.95 152.058
258.00 162.595
258.05 170.512
258.10 183.995
258.15 193.474
258.20 163.139
258.25 123.574
258.30 117.220
258.35 128.584
258.40 124.004
258.45 101.154
258.50 84.8803
258.55 70.3361
258.60 63.9315
258.65 78.5413
258.70 99.7582
258.75 112.767
258.80 121.800
258.85 145.619
258.90 173.048
258.95 191.367
259.00 183.032
259.05 153.667
259.10 128.831
259.15 115.021
259.20 120.652
259.25 120.055
259.30 106.813
259.35 88.3890
259.40 80.8524
259.45 99.5230
259.50 119.393
259.55 124.268
259.60 119.528
259.65 110.756
259.70 99.1717
259.75 84.4038
259.80 65.6992
259.85 48.6731
259.90 41.1487
259.95 42.7271
260.00 51.9080
260.05 72.4639
260.10 97.8096
260.15 114.981
260.20 123.682
260.25 127.146
260.30 125.512
260.35 119.798
260.40 114.855
260.45 108.743
260.50 93.4144
260.55 78.1843
260.60 69.7729
260.65 61.5562
260.70 58.6829
260.75 67.7082
260.80 80.6136
260.85 92.3810
260.90 101.750
260.95 106.335
261.00 108.548
261.05 100.498
261.10 79.7207
261.15 61.8225
261.20 55.9271
261.25 61.0396
261.30 67.7485
261.35 67.3543
261.40 65.5376
261.45 76.2238
261.50 100.057
261.55 120.206
261.60 125.793
261.65 122.443
261.70 106.481
261.75 85.6021
261.80 79.2089
261.85 87.7340
261.90 110.873
261.95 130.587
262.00 131.522
262.05 122.492
262.10 113.767
262.15 109.868
262.20 118.916
262.25 133.630
262.30 136.875
262.35 136.553
262.40 140.193
262.45 137.889
262.50 120.490
262.55 96.3196
262.60 88.1412
262.65 97.6364
262.70 107.716
262.75 102.594
262.80 88.5468
262.85 84.2088
262.90 91.0239
262.95 98.1250
263.00 91.8108
263.05 77.1706
263.10 65.2523
263.15 62.5458
263.20 74.1097
263.25 92.7047
263.30 113.239
263.35 134.479
263.40 160.019
263.45 176.789
263.50 177.586
263.55 175.699
263.60 191.346
263.65 213.437
263.70 226.307
263.75 249.903
263.80 282.362
263.85 298.763
263.90 295.032
263.95 274.999
264.00 251.192
264.05 239.012
264.10 234.075
264.15 236.063
264.20 273.853
264.25 329.593
264.30 353.027
264.35 348.663
264.40 319.743
264.45 283.195
264.50 268.202
264.55 256.615
264.60 242.295
264.65 237.325
264.70 235.588
264.75 224.163
264.80 202.202
264.85 183.873
264.90 188.295
264.95 206.233
265.00 217.606
265.05 219.960
265.10 219.773
265.15 224.038
265.20 231.889
265.25 246.319
265.30 256.940
265.35 255.145
265.40 268.879
265.45 307.511
265.50 328.594
265.55 311.417
265.60 284.012
265.65 283.014
