# HIMAWARI8 relative spectral response function for band 11
# (see http://www.data.jma.go.jp/mscweb/en/himawari89/space_segment/spsg_ahi.html#band)
# converted from 
# http://www.data.jma.go.jp/mscweb/en/himawari89/space_segment/srf_201309/AHI-08_SpectralResponsivity.zip
# http://www.data.jma.go.jp/mscweb/en/himawari89/space_segment/srf_201310/AHI-09_SpectralResponsivity.zip
# 
# LAMBDA   RSR
# 
 8178.62 0.0009770580000000
 8179.29 0.0010472230000000
 8179.96 0.0013044190000000
 8180.63 0.0013477540000000
 8181.30 0.0013675850000000
 8181.97 0.0013799150000000
 8182.64 0.0013934910000000
 8183.31 0.0014067890000000
 8183.98 0.0014196410000000
 8184.65 0.0014318590000000
 8185.32 0.0014434150000000
 8185.99 0.0014543570000000
 8186.66 0.0014646970000000
 8187.33 0.0014745270000000
 8188.00 0.0014839300000000
 8188.67 0.0014929100000000
 8189.34 0.0015018850000000
 8190.01 0.0015110340000000
 8190.68 0.0015205520000000
 8191.35 0.0015306950000000
 8192.02 0.0015415890000000
 8192.69 0.0015534790000000
 8193.36 0.0015664010000000
 8194.03 0.0015806080000000
 8194.71 0.0015960300000000
 8195.38 0.0016125140000000
 8196.05 0.0016300410000000
 8196.72 0.0016485130000000
 8197.39 0.0016675440000000
 8198.07 0.0016869540000000
 8198.74 0.0017065430000000
 8199.41 0.0017258050000000
 8200.08 0.0017445560000000
 8200.75 0.0017625920000000
 8201.43 0.0017795270000000
 8202.10 0.0017951730000000
 8202.77 0.0018095490000000
 8203.45 0.0018226400000000
 8204.12 0.0018345310000000
 8204.79 0.0018452370000000
 8205.46 0.0018551320000000
 8206.14 0.0018644590000000
 8206.81 0.0018732980000000
 8207.49 0.0018822970000000
 8208.16 0.0018916900000000
 8208.83 0.0019020160000000
 8209.51 0.0019135090000000
 8210.18 0.0019264490000000
 8210.85 0.0019412520000000
 8211.53 0.0019581250000000
 8212.20 0.0019770000000000
 8212.88 0.0019982580000000
 8213.55 0.0020217910000000
 8214.23 0.0020474170000000
 8214.90 0.0020752070000000
 8215.58 0.0021049170000000
 8216.25 0.0021362480000000
 8216.93 0.0021689890000000
 8217.60 0.0022025940000000
 8218.28 0.0022366670000000
 8218.95 0.0022710670000000
 8219.63 0.0023054720000000
 8220.30 0.0023395580000000
 8220.98 0.0023731070000000
 8221.66 0.0024057800000000
 8222.33 0.0024374790000000
 8223.01 0.0024682530000000
 8223.68 0.0024980080000000
 8224.36 0.0025268820000000
 8225.04 0.0025549590000000
 8225.71 0.0025824480000000
 8226.39 0.0026095210000000
 8227.07 0.0026363520000000
 8227.74 0.0026632040000000
 8228.42 0.0026904470000000
 8229.10 0.0027182800000000
 8229.78 0.0027469150000000
 8230.45 0.0027767600000000
 8231.13 0.0028078440000000
 8231.81 0.0028403450000000
 8232.49 0.0028744750000000
 8233.16 0.0029101010000000
 8233.84 0.0029475070000000
 8234.52 0.0029866600000000
 8235.20 0.0030275500000000
 8235.88 0.0030701680000000
 8236.55 0.0031143730000000
 8237.23 0.0031600560000000
 8237.91 0.0032071270000000
 8238.59 0.0032555150000000
 8239.27 0.0033051040000000
 8239.95 0.0033558060000000
 8240.63 0.0034074610000000
 8241.31 0.0034600360000000
 8241.98 0.0035135430000000
 8242.66 0.0035681570000000
 8243.34 0.0036236150000000
 8244.02 0.0036799610000000
 8244.70 0.0037372000000000
 8245.38 0.0037952250000000
 8246.06 0.0038540550000000
 8246.74 0.0039138160000000
 8247.42 0.0039744210000000
 8248.10 0.0040360000000000
 8248.78 0.0040986720000000
 8249.46 0.0041622530000000
 8250.14 0.0042268130000000
 8250.83 0.0042924520000000
 8251.51 0.0043590790000000
 8252.19 0.0044265640000000
 8252.87 0.0044947890000000
 8253.55 0.0045638660000000
 8254.23 0.0046338160000000
 8254.91 0.0047046890000000
 8255.59 0.0047764550000000
 8256.27 0.0048490800000000
 8256.96 0.0049226260000000
 8257.64 0.0049972900000000
 8258.32 0.0050731050000000
 8259.00 0.0051503420000000
 8259.68 0.0052291980000000
 8260.37 0.0053099650000000
 8261.05 0.0053927950000000
 8261.73 0.0054778350000000
 8262.41 0.0055652450000000
 8263.10 0.0056554510000000
 8263.78 0.0057484500000000
 8264.46 0.0058446350000000
 8265.15 0.0059440880000000
 8265.83 0.0060468240000000
 8266.51 0.0061530250000000
 8267.20 0.0062626310000000
 8267.88 0.0063755790000000
 8268.56 0.0064918600000000
 8269.25 0.0066114410000000
 8269.93 0.0067341610000000
 8270.61 0.0068596610000000
 8271.30 0.0069875930000000
 8271.98 0.0071181490000000
 8272.67 0.0072513910000000
 8273.35 0.0073868950000000
 8274.04 0.0075246790000000
 8274.72 0.0076644910000000
 8275.41 0.0078060810000000
 8276.09 0.0079494740000000
 8276.78 0.0080948390000000
 8277.46 0.0082419330000000
 8278.15 0.0083911060000000
 8278.83 0.0085426730000000
 8279.52 0.0086971710000000
 8280.20 0.0088549360000000
 8280.89 0.0090163200000000
 8281.57 0.0091818080000000
 8282.26 0.0093515660000000
 8282.95 0.0095256850000000
 8283.63 0.0097045010000000
 8284.32 0.0098903350000000
 8285.00 0.0100835290000000
 8285.69 0.0102838640000000
 8286.38 0.0104904940000000
 8287.06 0.0107033500000000
 8287.75 0.0109221940000000
 8288.44 0.0111470850000000
 8289.12 0.0113781900000000
 8289.81 0.0116154320000000
 8290.50 0.0118583760000000
 8291.19 0.0121070050000000
 8291.87 0.0123612990000000
 8292.56 0.0126209840000000
 8293.25 0.0128854280000000
 8293.94 0.0131548940000000
 8294.63 0.0134294360000000
 8295.31 0.0137089490000000
 8296.00 0.0139934970000000
 8296.69 0.0142833160000000
 8297.38 0.0145788820000000
 8298.07 0.0148793580000000
 8298.76 0.0151862450000000
 8299.44 0.0154993100000000
 8300.13 0.0158188000000000
 8300.82 0.0161451770000000
 8301.51 0.0164795820000000
 8302.20 0.0168233250000000
 8302.89 0.0171755880000000
 8303.58 0.0175372420000000
 8304.27 0.0179083810000000
 8304.96 0.0182892870000000
 8305.65 0.0186801570000000
 8306.34 0.0190812500000000
 8307.03 0.0194930600000000
 8307.72 0.0199165830000000
 8308.41 0.0203524700000000
 8309.10 0.0208012360000000
 8309.79 0.0212624430000000
 8310.48 0.0217358190000000
 8311.17 0.0222219830000000
 8311.86 0.0227224020000000
 8312.55 0.0232368070000000
 8313.24 0.0237638030000000
 8313.93 0.0243054810000000
 8314.63 0.0248619670000000
 8315.32 0.0254332630000000
 8316.01 0.0260200530000000
 8316.70 0.0266225020000000
 8317.39 0.0272403810000000
 8318.08 0.0278742240000000
 8318.78 0.0285260900000000
 8319.47 0.0291974800000000
 8320.16 0.0298899900000000
 8320.85 0.0306054270000000
 8321.54 0.0313412350000000
 8322.24 0.0320973050000000
 8322.93 0.0328732850000000
 8323.62 0.0336703940000000
 8324.32 0.0344876150000000
 8325.01 0.0353264150000000
 8325.70 0.0361869790000000
 8326.39 0.0370695700000000
 8327.09 0.0379751270000000
 8327.78 0.0389042670000000
 8328.48 0.0398567500000000
 8329.17 0.0408352610000000
 8329.86 0.0418388500000000
 8330.56 0.0428697020000000
 8331.25 0.0439288680000000
 8331.94 0.0450164170000000
 8332.64 0.0461350480000000
 8333.33 0.0472847610000000
 8334.03 0.0484697070000000
 8334.72 0.0496916140000000
 8335.42 0.0509538770000000
 8336.11 0.0522549850000000
 8336.81 0.0535927350000000
 8337.50 0.0549706070000000
 8338.20 0.0563854920000000
 8338.89 0.0578423020000000
 8339.59 0.0593379570000000
 8340.28 0.0608721680000000
 8340.98 0.0624453170000000
 8341.68 0.0640638380000000
 8342.37 0.0657265610000000
 8343.07 0.0674341380000000
 8343.76 0.0691893430000000
 8344.46 0.0709925130000000
 8345.16 0.0728421510000000
 8345.85 0.0747421880000000
 8346.55 0.0766933340000000
 8347.25 0.0786921360000000
 8347.94 0.0807464200000000
 8348.64 0.0828556990000000
 8349.34 0.0850209850000000
 8350.03 0.0872409820000000
 8350.73 0.0895209360000000
 8351.43 0.0918579120000000
 8352.13 0.0942564610000000
 8352.82 0.0967175130000000
 8353.52 0.0992421500000000
 8354.22 0.1018321410000000
 8354.92 0.1044886390000000
 8355.61 0.1072120630000000
 8356.31 0.1100082630000000
 8357.01 0.1128712390000000
 8357.71 0.1158062660000000
 8358.41 0.1188126750000000
 8359.11 0.1218849130000000
 8359.81 0.1250307170000000
 8360.50 0.1282519090000000
 8361.20 0.1315500720000000
 8361.90 0.1349286740000000
 8362.60 0.1383881290000000
 8363.30 0.1419337890000000
 8364.00 0.1455602310000000
 8364.70 0.1492768750000000
 8365.40 0.1530806390000000
 8366.10 0.1569771000000000
 8366.80 0.1609666570000000
 8367.50 0.1650499280000000
 8368.20 0.1692261670000000
 8368.90 0.1734946380000000
 8369.60 0.1778589200000000
 8370.30 0.1823225640000000
 8371.00 0.1868830270000000
 8371.70 0.1915418470000000
 8372.40 0.1962997290000000
 8373.11 0.2011508820000000
 8373.81 0.2061033060000000
 8374.51 0.2111465670000000
 8375.21 0.2162861410000000
 8375.91 0.2215134440000000
 8376.61 0.2268379510000000
 8377.31 0.2322507960000000
 8378.02 0.2377598160000000
 8378.72 0.2433686130000000
 8379.42 0.2490643030000000
 8380.12 0.2548488770000000
 8380.82 0.2607180950000000
 8381.53 0.2666754220000000
 8382.23 0.2727293510000000
 8382.93 0.2788874160000000
 8383.64 0.2851507040000000
 8384.34 0.2915111140000000
 8385.04 0.2979651830000000
 8385.74 0.3045112750000000
 8386.45 0.3111506160000000
 8387.15 0.3178753860000000
 8387.85 0.3246934580000000
 8388.56 0.3316028550000000
 8389.26 0.3385982950000000
 8389.97 0.3456734850000000
 8390.67 0.3528208010000000
 8391.37 0.3600494860000000
 8392.08 0.3673560470000000
 8392.78 0.3747438910000000
 8393.49 0.3821884310000000
 8394.19 0.3896886760000000
 8394.90 0.3972431830000000
 8395.60 0.4048326170000000
 8396.31 0.4124587760000000
 8397.01 0.4201243470000000
 8397.72 0.4278398490000000
 8398.42 0.4355973350000000
 8399.13 0.4433925590000000
 8399.83 0.4512207480000000
 8400.54 0.4590754220000000
 8401.24 0.4669508860000000
 8401.95 0.4748429650000000
 8402.66 0.4827550740000000
 8403.36 0.4906864870000000
 8404.07 0.4986333260000000
 8404.77 0.5065955190000000
 8405.48 0.5145717120000000
 8406.19 0.5225592950000000
 8406.89 0.5305521570000000
 8407.60 0.5385450470000001
 8408.31 0.5465364250000000
 8409.01 0.5545269960000000
 8409.72 0.5625193760000000
 8410.43 0.5704918560000000
 8411.14 0.5784476140000000
 8411.84 0.5863982300000000
 8412.55 0.5943293710000001
 8413.26 0.6022371909999999
 8413.97 0.6101173519999999
 8414.68 0.6179606439999999
 8415.38 0.6257614000000000
 8416.09 0.6335146640000000
 8416.80 0.6412136920000000
 8417.51 0.6488651240000000
 8418.22 0.6564597010000000
 8418.93 0.6639884770000000
 8419.63 0.6714223550000000
 8420.34 0.6787767370000000
 8421.05 0.6860522070000000
 8421.76 0.6932257490000000
 8422.47 0.7003240760000000
 8423.18 0.7073441539999999
 8423.89 0.7142762090000000
 8424.60 0.7211218320000000
 8425.31 0.7278731920000000
 8426.02 0.7345248980000000
 8426.73 0.7410711800000001
 8427.44 0.7475471910000000
 8428.15 0.7539452410000000
 8428.86 0.7602461840000000
 8429.57 0.7664526580000000
 8430.28 0.7725690990000000
 8430.99 0.7785962980000000
 8431.70 0.7845098140000000
 8432.41 0.7903474310000000
 8433.13 0.7961090820000000
 8433.84 0.8017567080000000
 8434.55 0.8073314490000000
 8435.26 0.8128180520000000
 8435.97 0.8182045940000000
 8436.68 0.8234345230000000
 8437.39 0.8285590500000000
 8438.11 0.8335850060000000
 8438.82 0.8384771500000000
 8439.53 0.8432446320000000
 8440.24 0.8478845830000000
 8440.96 0.8523986940000000
 8441.67 0.8567543480000001
 8442.38 0.8609625680000000
 8443.09 0.8650283360000000
 8443.81 0.8689541050000000
 8444.52 0.8727755900000000
 8445.23 0.8764795630000000
 8445.95 0.8800339750000000
 8446.66 0.8834724660000000
 8447.37 0.8867906860000000
 8448.09 0.8899835720000000
 8448.80 0.8930535960000000
 8449.51 0.8959966860000000
 8450.23 0.8988701110000000
 8450.94 0.9017137380000000
 8451.66 0.9044111490000000
 8452.37 0.9070806840000000
 8453.09 0.9097278230000000
 8453.80 0.9123305580000000
 8454.51 0.9147666140000000
 8455.23 0.9170062460000000
 8455.94 0.9190266640000000
 8456.66 0.9209808770000000
 8457.37 0.9228556449999999
 8458.09 0.9246460040000000
 8458.81 0.9263567510000000
 8459.52 0.9279771610000001
 8460.24 0.9295033590000000
 8460.95 0.9309367000000000
 8461.67 0.9322771510000000
 8462.38 0.9335188980000000
 8463.10 0.9346639970000000
 8463.82 0.9357172419999999
 8464.53 0.9366739580000000
 8465.25 0.9375487230000000
 8465.97 0.9383551600000000
 8466.68 0.9391079510000000
 8467.40 0.9398357939999999
 8468.12 0.9405546870000000
 8468.83 0.9412786880000000
 8469.55 0.9420122000000000
 8470.27 0.9427527600000000
 8470.99 0.9434987430000000
 8471.70 0.9442557110000001
 8472.42 0.9450105270000000
 8473.14 0.9457558130000000
 8473.86 0.9464832620000000
 8474.58 0.9471802840000000
 8475.29 0.9478363550000000
 8476.01 0.9484431050000000
 8476.73 0.9489895130000000
 8477.45 0.9494726270000000
 8478.17 0.9498890300000000
 8478.89 0.9502370300000000
 8479.61 0.9505108050000000
 8480.33 0.9507281970000000
 8481.04 0.9509004100000000
 8481.76 0.9510315960000000
 8482.48 0.9511392940000000
 8483.20 0.9512330810000000
 8483.92 0.9513199130000000
 8484.64 0.9514188700000000
 8485.36 0.9515354350000000
 8486.08 0.9516702200000000
 8486.80 0.9518138430000000
 8487.52 0.9519664150000000
 8488.24 0.9521313920000000
 8488.96 0.9523096080000000
 8489.69 0.9524964840000000
 8490.41 0.9526810590000000
 8491.13 0.9528529280000000
 8491.85 0.9530025230000000
 8492.57 0.9531148430000000
 8493.29 0.9531730000000000
 8494.01 0.9531935480000000
 8494.73 0.9531567630000000
 8495.45 0.9530695300000001
 8496.18 0.9529176080000000
 8496.90 0.9527142170000000
 8497.62 0.9524661590000000
 8498.34 0.9521783029999999
 8499.07 0.9518595850000000
 8499.79 0.9515262590000000
 8500.51 0.9512148230000000
 8501.23 0.9509205020000000
 8501.96 0.9506469350000000
 8502.68 0.9504207050000000
 8503.40 0.9502397440000000
 8504.12 0.9500995719999999
 8504.85 0.9499999600000000
 8505.57 0.9499587910000000
 8506.29 0.9499544200000000
 8507.02 0.9499888830000000
 8507.74 0.9500593389999999
 8508.47 0.9501503850000000
 8509.19 0.9502534290000000
 8509.91 0.9503597280000000
 8510.64 0.9504576510000000
 8511.36 0.9505390220000000
 8512.09 0.9505912160000000
 8512.81 0.9506078350000000
 8513.54 0.9505831790000000
 8514.26 0.9505009140000000
 8514.99 0.9503499230000000
 8515.71 0.9501419209999999
 8516.44 0.9498614700000000
 8517.16 0.9495258000000000
 8517.89 0.9491316000000000
 8518.61 0.9486945730000000
 8519.34 0.9482205200000000
 8520.06 0.9477226630000000
 8520.79 0.9472104040000000
 8521.52 0.9467071670000000
 8522.24 0.9462214980000000
 8522.97 0.9457611100000000
 8523.70 0.9453377110000000
 8524.42 0.9449585260000000
 8525.15 0.9446219490000000
 8525.88 0.9443238130000000
 8526.60 0.9440629570000000
 8527.33 0.9438258550000000
 8528.06 0.9436046840000000
 8528.78 0.9433947200000000
 8529.51 0.9431725190000000
 8530.24 0.9429213470000000
 8530.97 0.9426246050000000
 8531.70 0.9422861700000000
 8532.42 0.9419013670000000
 8533.15 0.9414420830000000
 8533.88 0.9409030580000000
 8534.61 0.9403278810000000
 8535.34 0.9397162910000000
 8536.06 0.9390799710000000
 8536.79 0.9384288210000000
 8537.52 0.9377865390000000
 8538.25 0.9371699280000000
 8538.98 0.9365932160000000
 8539.71 0.9360690659999999
 8540.44 0.9356144669999999
 8541.17 0.9352299100000000
 8541.90 0.9349113489999999
 8542.63 0.9346791240000000
 8543.36 0.9345062190000000
 8544.09 0.9343750770000000
 8544.82 0.9342783110000000
 8545.55 0.9342029070000000
 8546.28 0.9341316010000000
 8547.01 0.9340514190000000
 8547.74 0.9339444830000000
 8548.47 0.9338113020000000
 8549.20 0.9336337810000001
 8549.93 0.9334136680000000
 8550.66 0.9331317990000000
 8551.39 0.9328003860000000
 8552.13 0.9324374830000000
 8552.86 0.9320551700000000
 8553.59 0.9316644200000000
 8554.32 0.9312820460000000
 8555.05 0.9309208270000000
 8555.78 0.9305877490000000
 8556.52 0.9303079180000000
 8557.25 0.9300801430000000
 8557.98 0.9299057650000000
 8558.71 0.9297923230000000
 8559.45 0.9297500880000000
 8560.18 0.9297408800000000
 8560.91 0.9297805840000000
 8561.64 0.9298445430000000
 8562.38 0.9299293940000000
 8563.11 0.9300270950000000
 8563.84 0.9301288280000000
 8564.58 0.9302259140000000
 8565.31 0.9303160910000000
 8566.04 0.9303948670000000
 8566.78 0.9304547750000000
 8567.51 0.9305009820000000
 8568.25 0.9305362390000000
 8568.98 0.9305662370000000
 8569.71 0.9305974520000000
 8570.45 0.9306421520000000
 8571.18 0.9307082890000000
 8571.92 0.9308021570000000
 8572.65 0.9309292580000000
 8573.39 0.9310977270000000
 8574.12 0.9313154410000000
 8574.86 0.9315868090000000
 8575.59 0.9319068760000000
 8576.33 0.9322753860000000
 8577.06 0.9326909310000000
 8577.80 0.9331497860000000
 8578.54 0.9336492640000000
 8579.27 0.9341771630000000
 8580.01 0.9347232140000000
 8580.74 0.9352992810000000
 8581.48 0.9358790280000000
 8582.22 0.9364591010000000
 8582.95 0.9370386750000000
 8583.69 0.9376041389999999
 8584.43 0.9381504960000000
 8585.16 0.9386793630000000
 8585.90 0.9391920070000001
 8586.64 0.9396902600000000
 8587.38 0.9401736050000000
 8588.11 0.9406455740000000
 8588.85 0.9411144280000000
 8589.59 0.9415844570000000
 8590.33 0.9420625270000000
 8591.07 0.9425542200000000
 8591.80 0.9430627750000000
 8592.54 0.9436066150000000
 8593.28 0.9441860740000000
 8594.02 0.9448015720000000
 8594.76 0.9454591390000000
 8595.50 0.9461611430000000
 8596.23 0.9469048879999999
 8596.97 0.9476935960000000
 8597.71 0.9485242220000000
 8598.45 0.9493830510000000
 8599.19 0.9502648299999999
 8599.93 0.9511817020000000
 8600.67 0.9521441349999999
 8601.41 0.9530971400000000
 8602.15 0.9540273620000000
 8602.89 0.9549221700000000
 8603.63 0.9557911760000000
 8604.37 0.9566115490000000
 8605.11 0.9573800270000000
 8605.85 0.9581076700000000
 8606.59 0.9587947350000000
 8607.33 0.9594478310000000
 8608.07 0.9600757990000000
 8608.82 0.9606925110000000
 8609.56 0.9613059970000000
 8610.30 0.9619318510000000
 8611.04 0.9625830860000000
 8611.78 0.9632676080000000
 8612.52 0.9639839600000000
 8613.26 0.9647322090000000
 8614.01 0.9655124859999999
 8614.75 0.9663258570000000
 8615.49 0.9671431470000000
 8616.23 0.9679739230000000
 8616.98 0.9688099500000000
 8617.72 0.9696467630000000
 8618.46 0.9704726820000000
 8619.20 0.9712769959999999
 8619.95 0.9720482180000000
 8620.69 0.9727638020000000
 8621.43 0.9734094049999999
 8622.18 0.9739807240000000
 8622.92 0.9744784040000000
 8623.66 0.9749120840000000
 8624.41 0.9752867610000000
 8625.15 0.9756132570000000
 8625.89 0.9759035800000000
 8626.64 0.9761793590000000
 8627.38 0.9764539249999999
 8628.13 0.9767431660000000
 8628.87 0.9770667720000000
 8629.62 0.9774325730000000
 8630.36 0.9778539780000000
 8631.11 0.9783257420000000
 8631.85 0.9788204870000000
 8632.60 0.9793282670000000
 8633.34 0.9798554779999999
 8634.09 0.9804058700000000
 8634.83 0.9809704160000000
 8635.58 0.9815486350000000
 8636.32 0.9821169370000000
 8637.07 0.9826531620000000
 8637.82 0.9831350820000000
 8638.56 0.9835761760000000
 8639.31 0.9839785930000000
 8640.06 0.9843473000000000
 8640.80 0.9846817839999999
 8641.55 0.9849786790000000
 8642.30 0.9852422500000000
 8643.04 0.9854696620000000
 8643.79 0.9856756040000000
 8644.54 0.9858499520000000
 8645.28 0.9860058140000000
 8646.03 0.9861481390000000
 8646.78 0.9862914970000000
 8647.53 0.9864647010000001
 8648.27 0.9866926370000000
 8649.02 0.9869747260000000
 8649.77 0.9873123539999999
 8650.52 0.9877102770000000
 8651.27 0.9881693740000000
 8652.02 0.9886853070000000
 8652.76 0.9892485210000000
 8653.51 0.9898413810000000
 8654.26 0.9904550100000000
 8655.01 0.9910811500000000
 8655.76 0.9917102360000000
 8656.51 0.9923250110000000
 8657.26 0.9929182610000000
 8658.01 0.9934836480000000
 8658.76 0.9940043280000000
 8659.51 0.9944702510000000
 8660.26 0.9948898680000000
 8661.01 0.9952659940000000
 8661.76 0.9955707530000000
 8662.51 0.9958100290000000
 8663.26 0.9959698860000000
 8664.01 0.9960005550000000
 8664.76 0.9959829890000000
 8665.51 0.9959359200000000
 8666.26 0.9958312770000000
 8667.01 0.9956626070000000
 8667.76 0.9954582190000000
 8668.52 0.9952276910000000
 8669.27 0.9949865580000000
 8670.02 0.9947444310000000
 8670.77 0.9944819440000000
 8671.52 0.9941775040000000
 8672.27 0.9938319650000000
 8673.03 0.9934594690000000
 8673.78 0.9930713200000000
 8674.53 0.9926821400000000
