# HIMAWARI8 relative spectral response function for band 14
# (see http://www.data.jma.go.jp/mscweb/en/himawari89/space_segment/spsg_ahi.html#band)
# converted from 
# http://www.data.jma.go.jp/mscweb/en/himawari89/space_segment/srf_201309/AHI-08_SpectralResponsivity.zip
# http://www.data.jma.go.jp/mscweb/en/himawari89/space_segment/srf_201310/AHI-09_SpectralResponsivity.zip
# 
# LAMBDA   RSR
# 
10439.50 0.0009849910000000
10440.59 0.0010018580000000
10441.68 0.0010186640000000
10442.77 0.0010349400000000
10443.86 0.0010502740000000
10444.96 0.0010643450000000
10446.05 0.0010769340000000
10447.14 0.0010931380000000
10448.23 0.0012675970000000
10449.32 0.0013185270000000
10450.41 0.0013237550000000
10451.51 0.0013282510000000
10452.60 0.0013313970000000
10453.69 0.0013336880000000
10454.78 0.0013355150000000
10455.88 0.0013371250000000
10456.97 0.0013388500000000
10458.06 0.0013411330000000
10459.16 0.0013442830000000
10460.25 0.0013483600000000
10461.35 0.0013537730000000
10462.44 0.0013604870000000
10463.53 0.0013685800000000
10464.63 0.0013780860000000
10465.72 0.0013888820000000
10466.82 0.0014006800000000
10467.92 0.0014134750000000
10469.01 0.0014270330000000
10470.11 0.0014410470000000
10471.20 0.0014554330000000
10472.30 0.0014698360000000
10473.40 0.0014843000000000
10474.49 0.0014986640000000
10475.59 0.0015129540000000
10476.69 0.0015271770000000
10477.79 0.0015413750000000
10478.89 0.0015559280000000
10479.98 0.0015709000000000
10481.08 0.0015864480000000
10482.18 0.0016029260000000
10483.28 0.0016208520000000
10484.38 0.0016401060000000
10485.48 0.0016610560000000
10486.58 0.0016840190000000
10487.68 0.0017089530000000
10488.78 0.0017361930000000
10489.88 0.0017654080000000
10490.98 0.0017968320000000
10492.08 0.0018301790000000
10493.18 0.0018651870000000
10494.28 0.0019017430000000
10495.38 0.0019395390000000
10496.48 0.0019781080000000
10497.59 0.0020172780000000
10498.69 0.0020567970000000
10499.79 0.0020961270000000
10500.89 0.0021354070000000
10502.00 0.0021741660000000
10503.10 0.0022123190000000
10504.20 0.0022497330000000
10505.31 0.0022864960000000
10506.41 0.0023224780000000
10507.51 0.0023580320000000
10508.62 0.0023931220000000
10509.72 0.0024279540000000
10510.83 0.0024627690000000
10511.93 0.0024975990000000
10513.04 0.0025327120000000
10514.14 0.0025682570000000
10515.25 0.0026041760000000
10516.35 0.0026407020000000
10517.46 0.0026777010000000
10518.57 0.0027151950000000
10519.67 0.0027529860000000
10520.78 0.0027910500000000
10521.89 0.0028289590000000
10522.99 0.0028665680000000
10524.10 0.0029037350000000
10525.21 0.0029401400000000
10526.32 0.0029756630000000
10527.42 0.0030101490000000
10528.53 0.0030433190000000
10529.64 0.0030753400000000
10530.75 0.0031059140000000
10531.86 0.0031353260000000
10532.97 0.0031635620000000
10534.08 0.0031906060000000
10535.19 0.0032170440000000
10536.30 0.0032429690000000
10537.41 0.0032685280000000
10538.52 0.0032943350000000
10539.63 0.0033204600000000
10540.74 0.0033473830000000
10541.85 0.0033752580000000
10542.96 0.0034045710000000
10544.07 0.0034353750000000
10545.19 0.0034681010000000
10546.30 0.0035027790000000
10547.41 0.0035395850000000
10548.52 0.0035786180000000
10549.64 0.0036199660000000
10550.75 0.0036636070000000
10551.86 0.0037093590000000
10552.98 0.0037576600000000
10554.09 0.0038079940000000
10555.20 0.0038604440000000
10556.32 0.0039150830000000
10557.43 0.0039715860000000
10558.55 0.0040300810000000
10559.66 0.0040906220000000
10560.78 0.0041526240000000
10561.89 0.0042162510000000
10563.01 0.0042813910000000
10564.12 0.0043479790000000
10565.24 0.0044159280000000
10566.36 0.0044850660000000
10567.47 0.0045552860000000
10568.59 0.0046265670000000
10569.71 0.0046986740000000
10570.82 0.0047716050000000
10571.94 0.0048453270000000
10573.06 0.0049194330000000
10574.18 0.0049941810000000
10575.30 0.0050692280000000
10576.41 0.0051448120000000
10577.53 0.0052209100000000
10578.65 0.0052972980000000
10579.77 0.0053739560000000
10580.89 0.0054512610000000
10582.01 0.0055289700000000
10583.13 0.0056074780000000
10584.25 0.0056867500000000
10585.37 0.0057669030000000
10586.49 0.0058483930000000
10587.61 0.0059314050000000
10588.73 0.0060160220000000
10589.85 0.0061028260000000
10590.98 0.0061918110000000
10592.10 0.0062832790000000
10593.22 0.0063773550000000
10594.34 0.0064740180000000
10595.47 0.0065734690000000
10596.59 0.0066757090000000
10597.71 0.0067802390000000
10598.83 0.0068873460000000
10599.96 0.0069967650000000
10601.08 0.0071083240000000
10602.21 0.0072218710000000
10603.33 0.0073372810000000
10604.45 0.0074540240000000
10605.58 0.0075721450000000
10606.70 0.0076909050000000
10607.83 0.0078103290000000
10608.95 0.0079302420000000
10610.08 0.0080499500000000
10611.21 0.0081701400000000
10612.33 0.0082908400000000
10613.46 0.0084117530000000
10614.58 0.0085336720000000
10615.71 0.0086559180000000
10616.84 0.0087790950000000
10617.97 0.0089033430000000
10619.09 0.0090290080000000
10620.22 0.0091564120000000
10621.35 0.0092860200000000
10622.48 0.0094179990000000
10623.61 0.0095525810000000
10624.73 0.0096901720000000
10625.86 0.0098308230000000
10626.99 0.0099747340000000
10628.12 0.0101221200000000
10629.25 0.0102728540000000
10630.38 0.0104273640000000
10631.51 0.0105851240000000
10632.64 0.0107462600000000
10633.77 0.0109105800000000
10634.90 0.0110837880000000
10636.03 0.0112746500000000
10637.17 0.0114734590000000
10638.30 0.0116755690000000
10639.43 0.0118811390000000
10640.56 0.0120895190000000
10641.69 0.0123007580000000
10642.83 0.0125142940000000
10643.96 0.0127297340000000
10645.09 0.0129474930000000
10646.23 0.0131668410000000
10647.36 0.0133883240000000
10648.49 0.0136118300000000
10649.63 0.0138374450000000
10650.76 0.0140659810000000
10651.90 0.0142969030000000
10653.03 0.0145304650000000
10654.17 0.0147670050000000
10655.30 0.0150073270000000
10656.44 0.0152511430000000
10657.57 0.0154988140000000
10658.71 0.0157505180000000
10659.84 0.0160063490000000
10660.98 0.0162667500000000
10662.12 0.0165316140000000
10663.25 0.0168011150000000
10664.39 0.0170745460000000
10665.53 0.0173522310000000
10666.67 0.0176334100000000
10667.80 0.0179190390000000
10668.94 0.0182083330000000
10670.08 0.0185001470000000
10671.22 0.0187945770000000
10672.36 0.0190916980000000
10673.50 0.0193910000000000
10674.64 0.0196932340000000
10675.78 0.0199976690000000
10676.92 0.0203047400000000
10678.06 0.0206145090000000
10679.20 0.0209268620000000
10680.34 0.0212434830000000
10681.48 0.0215632780000000
10682.62 0.0218874400000000
10683.76 0.0222188140000000
10684.90 0.0225577830000000
10686.04 0.0229044200000000
10687.19 0.0232564260000000
10688.33 0.0236147400000000
10689.47 0.0239805660000000
10690.61 0.0243529990000000
10691.76 0.0247322780000000
10692.90 0.0251168710000000
10694.04 0.0255095280000000
10695.19 0.0259075120000000
10696.33 0.0263120780000000
10697.48 0.0267239650000000
10698.62 0.0271437750000000
10699.76 0.0275699860000000
10700.91 0.0280041170000000
10702.05 0.0284470030000000
10703.20 0.0288995320000000
10704.35 0.0293634550000000
10705.49 0.0298404080000000
10706.64 0.0303301880000000
10707.78 0.0308363990000000
10708.93 0.0313590480000000
10710.08 0.0318979580000000
10711.23 0.0324583650000000
10712.37 0.0330319110000000
10713.52 0.0336028310000000
10714.67 0.0341754100000000
10715.82 0.0347640710000000
10716.96 0.0353665740000000
10718.11 0.0359820730000000
10719.26 0.0366110700000000
10720.41 0.0372516820000000
10721.56 0.0379044000000000
10722.71 0.0385695610000000
10723.86 0.0392475440000000
10725.01 0.0399406280000000
10726.16 0.0406485330000000
10727.31 0.0413800280000000
10728.46 0.0421288680000000
10729.61 0.0429045230000000
10730.77 0.0437067180000000
10731.92 0.0445098660000000
10733.07 0.0453211920000000
10734.22 0.0461680920000000
10735.37 0.0470481840000000
10736.53 0.0479666110000000
10737.68 0.0489216560000000
10738.83 0.0499187630000000
10739.98 0.0509586260000000
10741.14 0.0520382910000000
10742.29 0.0531591580000000
10743.45 0.0543181150000000
10744.60 0.0554243030000000
10745.76 0.0564756420000000
10746.91 0.0575570310000000
10748.07 0.0586667160000000
10749.22 0.0598056010000000
10750.38 0.0609807610000000
10751.53 0.0621918410000000
10752.69 0.0634410410000000
10753.84 0.0647454100000000
10755.00 0.0660409880000000
10756.16 0.0672982070000000
10757.31 0.0685924610000000
10758.47 0.0699318300000000
10759.63 0.0713215790000000
10760.79 0.0727649190000000
10761.95 0.0742631270000000
10763.10 0.0758204660000000
10764.26 0.0773176780000000
10765.42 0.0787459470000000
10766.58 0.0802234910000000
10767.74 0.0817546190000000
10768.90 0.0833253480000000
10770.06 0.0849543840000000
10771.22 0.0866228080000000
10772.38 0.0882473520000000
10773.54 0.0898218140000000
10774.70 0.0914461460000000
10775.86 0.0931136700000000
10777.02 0.0948281790000000
10778.18 0.0965927930000000
10779.35 0.0983784940000000
10780.51 0.1001547700000000
10781.67 0.1019678310000000
10782.83 0.1038340050000000
10784.00 0.1057468850000000
10785.16 0.1077089050000000
10786.32 0.1096802950000000
10787.49 0.1116339450000000
10788.65 0.1136402220000000
10789.81 0.1156937120000000
10790.98 0.1178069120000000
10792.14 0.1199111900000000
10793.31 0.1219566100000000
10794.47 0.1240109840000000
10795.64 0.1261007520000000
10796.80 0.1282314700000000
10797.97 0.1303628070000000
10799.14 0.1324511630000000
10800.30 0.1345410430000000
10801.47 0.1366603970000000
10802.64 0.1388102020000000
10803.80 0.1409988720000000
10804.97 0.1431976270000000
10806.14 0.1454236330000000
10807.31 0.1476846680000000
10808.47 0.1499785330000000
10809.64 0.1523265120000000
10810.81 0.1547406480000000
10811.98 0.1571926710000000
10813.15 0.1596874770000000
10814.32 0.1622175600000000
10815.49 0.1647818290000000
10816.66 0.1673906490000000
10817.83 0.1700399430000000
10819.00 0.1727040320000000
10820.17 0.1753619540000000
10821.34 0.1780378060000000
10822.51 0.1807573230000000
10823.68 0.1834796320000000
10824.85 0.1861836170000000
10826.03 0.1888980960000000
10827.20 0.1916425890000000
10828.37 0.1944026820000000
10829.54 0.1971602810000000
10830.72 0.1999498840000000
10831.89 0.2027747130000000
10833.06 0.2056403370000000
10834.24 0.2085644530000000
10835.41 0.2115209390000000
10836.58 0.2145258840000000
10837.76 0.2176228700000000
10838.93 0.2207865710000000
10840.11 0.2239890210000000
10841.28 0.2272772590000000
10842.46 0.2306502100000000
10843.63 0.2340660160000000
10844.81 0.2375506130000000
10845.99 0.2410891510000000
10847.16 0.2446674500000000
10848.34 0.2482791550000000
10849.52 0.2519168520000000
10850.69 0.2555995810000000
10851.87 0.2592972660000000
10853.05 0.2629999480000000
10854.23 0.2667449130000000
10855.41 0.2704873290000000
10856.58 0.2742551080000000
10857.76 0.2780589770000000
10858.94 0.2818957080000000
10860.12 0.2857662160000000
10861.30 0.2896836040000000
10862.48 0.2936688570000000
10863.66 0.2977069570000000
10864.84 0.3018106470000000
10866.02 0.3059916740000000
10867.20 0.3102545870000000
10868.38 0.3146045650000000
10869.57 0.3190161930000000
10870.75 0.3235334840000000
10871.93 0.3281148100000000
10873.11 0.3327695090000000
10874.29 0.3374934720000000
10875.48 0.3422852280000000
10876.66 0.3471599710000000
10877.84 0.3520718880000000
10879.03 0.3570214310000000
10880.21 0.3620063400000000
10881.39 0.3670372780000000
10882.58 0.3721049760000000
10883.76 0.3772022020000000
10884.95 0.3823337410000000
10886.13 0.3875016930000000
10887.32 0.3927151960000000
10888.50 0.3979602440000000
10889.69 0.4032674500000000
10890.87 0.4086188620000000
10892.06 0.4140338820000000
10893.25 0.4195061850000000
10894.43 0.4250475710000000
10895.62 0.4306766910000000
10896.81 0.4363534060000000
10897.99 0.4421116400000000
10899.18 0.4479524260000000
10900.37 0.4538637900000000
10901.56 0.4598689030000000
10902.75 0.4659046130000000
10903.94 0.4719702480000000
10905.13 0.4780804410000000
10906.31 0.4842546090000000
10907.50 0.4904759990000000
10908.69 0.4966949820000000
10909.88 0.5029697140000000
10911.07 0.5092928410000001
10912.27 0.5156285380000000
10913.46 0.5219991090000000
10914.65 0.5284140500000000
10915.84 0.5348623250000000
10917.03 0.5413429870000001
10918.22 0.5478564420000001
10919.41 0.5543946250000000
10920.61 0.5609934130000001
10921.80 0.5676510570000000
10922.99 0.5743340920000000
10924.19 0.5810689340000000
10925.38 0.5878527090000000
10926.57 0.5947381230000000
10927.77 0.6017052890000000
10928.96 0.6087298160000000
10930.16 0.6158685890000000
10931.35 0.6230746270000000
10932.55 0.6303168930000000
10933.74 0.6377182980000000
10934.94 0.6451082220000000
10936.13 0.6525407450000000
10937.33 0.6600599210000000
10938.53 0.6675623030000000
10939.72 0.6750659220000000
10940.92 0.6825686110000000
10942.12 0.6900191970000000
10943.31 0.6974086530000000
10944.51 0.7047575560000000
10945.71 0.7120032970000000
10946.91 0.7191597620000000
10948.11 0.7262546110000000
10949.30 0.7332620830000000
10950.50 0.7401641420000000
10951.70 0.7469889840000000
10952.90 0.7537401980000000
10954.10 0.7604288690000000
10955.30 0.7670925060000000
10956.50 0.7736846620000000
10957.70 0.7802263070000000
10958.90 0.7868240820000000
10960.11 0.7933230999999999
10961.31 0.7998215460000000
10962.51 0.8063725360000000
10963.71 0.8128855830000000
10964.91 0.8193515290000000
10966.11 0.8259515820000000
10967.32 0.8324005759999999
10968.52 0.8388996270000000
10969.72 0.8453970780000000
10970.93 0.8518151950000000
10972.13 0.8581765030000000
10973.33 0.8644225150000000
10974.54 0.8705616150000000
10975.74 0.8766103130000000
10976.95 0.8823973640000000
10978.15 0.8880525480000000
10979.36 0.8934630460000000
10980.56 0.8986752320000000
10981.77 0.9036747110000000
10982.98 0.9084118400000000
10984.18 0.9129977550000000
10985.39 0.9173144250000000
10986.60 0.9214478910000000
10987.80 0.9254315110000000
10989.01 0.9291726380000001
10990.22 0.9328333930000000
10991.43 0.9364002420000000
10992.63 0.9397786430000000
10993.84 0.9431077140000000
10995.05 0.9463548320000000
10996.26 0.9494648800000000
10997.47 0.9525379450000000
10998.68 0.9555524960000000
10999.89 0.9585180580000000
11001.10 0.9613191639999999
11002.31 0.9638586380000000
11003.52 0.9663156760000000
11004.73 0.9687628810000000
11005.94 0.9712011590000000
11007.15 0.9735894210000000
11008.37 0.9759405970000000
11009.58 0.9782297780000000
11010.79 0.9804136820000000
11012.00 0.9824798190000000
11013.22 0.9843636900000000
11014.43 0.9860855970000000
11015.64 0.9876404580000000
11016.86 0.9889858370000000
11018.07 0.9901776510000000
11019.28 0.9911910560000000
11020.50 0.9920417960000000
11021.71 0.9927836350000000
11022.93 0.9933955710000000
11024.14 0.9939446470000000
11025.36 0.9944365900000000
11026.57 0.9948873930000000
11027.79 0.9953253720000000
11029.01 0.9957345090000000
11030.22 0.9961349870000000
11031.44 0.9965240620000000
11032.66 0.9969152140000000
11033.87 0.9973159020000000
11035.09 0.9977368760000001
11036.31 0.9981682830000000
11037.53 0.9985907130000000
11038.75 0.9989868640000000
11039.96 0.9993417710000000
11041.18 0.9996399980000000
11042.40 0.9998533550000001
11043.62 0.9999849960000000
11044.84 0.9999732900000000
11046.06 0.9998575000000000
11047.28 0.9996317620000000
11048.50 0.9992520040000000
11049.72 0.9987793600000000
11050.94 0.9981907480000000
11052.17 0.9974964410000000
11053.39 0.9967303320000001
11054.61 0.9958988300000000
11055.83 0.9950412000000000
11057.05 0.9941673070000000
11058.28 0.9933077320000000
11059.50 0.9924791350000000
11060.72 0.9917091800000000
11061.95 0.9909902500000000
11063.17 0.9903297700000000
11064.39 0.9897695970000000
11065.62 0.9892578990000001
11066.84 0.9888320340000000
11068.07 0.9884553149999999
11069.29 0.9881108450000000
11070.52 0.9878003660000000
11071.74 0.9874853630000000
11072.97 0.9871336540000000
11074.20 0.9867258700000000
11075.42 0.9862613310000000
11076.65 0.9856979550000000
11077.88 0.9850546680000000
11079.10 0.9843296810000000
11080.33 0.9834941470000000
11081.56 0.9825812700000000
11082.79 0.9815650270000000
11084.02 0.9804851950000000
11085.25 0.9793697770000001
11086.47 0.9782372260000000
11087.70 0.9771256240000000
11088.93 0.9760786120000000
11090.16 0.9751050410000000
11091.39 0.9742179510000000
11092.62 0.9734675240000000
11093.85 0.9728170100000000
11095.08 0.9722884730000000
11096.32 0.9718914480000000
11097.55 0.9715775730000000
11098.78 0.9713536760000000
11100.01 0.9711858230000000
11101.24 0.9710606700000000
11102.48 0.9709403150000000
11103.71 0.9708087190000000
11104.94 0.9706173270000000
11106.18 0.9703257790000001
11107.41 0.9699289570000000
11108.64 0.9694095960000000
11109.88 0.9688173170000000
11111.11 0.9681191470000000
11112.35 0.9673501230000000
11113.58 0.9665517240000000
11114.82 0.9657407700000000
11116.05 0.9649536940000000
11117.29 0.9642233440000000
11118.52 0.9636083820000000
11119.76 0.9630800510000000
11121.00 0.9627383610000000
11122.23 0.9625431570000000
11123.47 0.9625055740000000
11124.71 0.9626458140000000
11125.95 0.9629222740000000
11127.18 0.9633616530000000
11128.42 0.9639011760000000
11129.66 0.9644967080000000
11130.90 0.9651264440000000
11132.14 0.9657509330000000
11133.38 0.9663151580000000
11134.62 0.9668025280000000
11135.86 0.9672204950000000
11137.10 0.9674797360000000
11138.34 0.9676577800000000
11139.58 0.9677097430000000
11140.82 0.9676473460000000
11142.06 0.9674989429999999
11143.30 0.9672732230000000
11144.54 0.9670224160000001
11145.79 0.9667653920000000
11147.03 0.9665554220000000
11148.27 0.9663965600000000
11149.51 0.9663087920000000
11150.76 0.9662986960000000
11152.00 0.9663501230000000
11153.25 0.9665379110000000
11154.49 0.9668198870000000
11155.73 0.9672395300000000
11156.98 0.9677541680000000
11158.22 0.9683306250000000
11159.47 0.9689969220000000
11160.71 0.9696868780000000
11161.96 0.9703882980000000
11163.21 0.9710655880000000
11164.45 0.9717093270000000
11165.70 0.9722801670000000
11166.95 0.9727824090000000
11168.19 0.9731786640000000
11169.44 0.9734944530000000
11170.69 0.9737213370000000
11171.94 0.9738504160000000
11173.18 0.9739294610000000
11174.43 0.9739522280000000
11175.68 0.9739365360000000
11176.93 0.9739265270000000
11178.18 0.9739305910000000
11179.43 0.9739520330000000
11180.68 0.9740339220000001
11181.93 0.9742003770000000
11183.18 0.9744260480000000
11184.43 0.9747547280000000
11185.68 0.9751565260000000
11186.93 0.9756363370000000
11188.19 0.9761752480000000
11189.44 0.9767518070000000
11190.69 0.9773585270000000
11191.94 0.9779526589999999
11193.19 0.9785243179999999
11194.45 0.9790346950000000
11195.70 0.9794860320000000
11196.95 0.9798246110000000
11198.21 0.9800656639999999
11199.46 0.9801989930000000
11200.72 0.9801961800000000
11201.97 0.9800762130000000
11203.23 0.9798130850000000
11204.48 0.9794619630000000
11205.74 0.9790195800000000
11206.99 0.9785113890000000
11208.25 0.9779898310000000
11209.51 0.9774928930000000
11210.76 0.9770593850000000
11212.02 0.9767115260000000
11213.28 0.9765081620000000
11214.53 0.9764293330000000
11215.79 0.9765094930000000
11217.05 0.9767516920000000
11218.31 0.9771321030000000
11219.57 0.9777029120000000
11220.83 0.9783868449999999
11222.09 0.9791650270000000
11223.34 0.9800062870000000
11224.60 0.9808689830000000
11225.86 0.9816967060000000
11227.12 0.9824683940000000
11228.39 0.9831330350000000
11229.65 0.9836644110000000
11230.91 0.9840892170000000
11232.17 0.9842987260000000
11233.43 0.9843765980000000
11234.69 0.9843129450000000
11235.96 0.9840915760000000
11237.22 0.9837692320000000
11238.48 0.9833736680000000
11239.74 0.9829275210000000
11241.01 0.9824865590000000
11242.27 0.9821252780000000
11243.53 0.9818413940000000
11244.80 0.9817049130000000
11246.06 0.9817046070000000
11247.33 0.9818681770000000
11248.59 0.9822248180000001
11249.86 0.9826902070000000
11251.13 0.9833208230000000
11252.39 0.9840477450000000
11253.66 0.9848682439999999
11254.92 0.9857251400000000
11256.19 0.9865798070000000
11257.46 0.9873947610000000
11258.73 0.9881346110000000
11259.99 0.9887657100000000
11261.26 0.9892460440000000
