# HIMAWARI8 relative spectral response function for band 9
# (see http://www.data.jma.go.jp/mscweb/en/himawari89/space_segment/spsg_ahi.html#band)
# converted from 
# http://www.data.jma.go.jp/mscweb/en/himawari89/space_segment/srf_201309/AHI-08_SpectralResponsivity.zip
# http://www.data.jma.go.jp/mscweb/en/himawari89/space_segment/srf_201310/AHI-09_SpectralResponsivity.zip
# 
# LAMBDA   RSR
# 
 6543.22 0.0009419230000000
 6543.65 0.0010638990000000
 6544.07 0.0011481810000000
 6544.50 0.0011652390000000
 6544.93 0.0011749410000000
 6545.36 0.0011835160000000
 6545.79 0.0011894170000000
 6546.22 0.0011906270000000
 6546.64 0.0011909590000000
 6547.07 0.0011910030000000
 6547.50 0.0011900310000000
 6547.93 0.0011888410000000
 6548.36 0.0011899240000000
 6548.79 0.0011934200000000
 6549.22 0.0011989210000000
 6549.65 0.0012097890000000
 6550.08 0.0012236940000000
 6550.50 0.0012421460000000
 6550.93 0.0012642490000000
 6551.36 0.0012888850000000
 6551.79 0.0013156010000000
 6552.22 0.0013425060000000
 6552.65 0.0013691960000000
 6553.08 0.0013928770000000
 6553.51 0.0014144880000000
 6553.94 0.0014317210000000
 6554.37 0.0014434230000000
 6554.80 0.0014517190000000
 6555.23 0.0014523170000000
 6555.66 0.0014497750000000
 6556.09 0.0014450280000000
 6556.52 0.0014355510000000
 6556.95 0.0014240690000000
 6557.38 0.0014122760000000
 6557.81 0.0014005220000000
 6558.24 0.0013923010000000
 6558.67 0.0013856380000000
 6559.10 0.0013837280000000
 6559.53 0.0013876390000000
 6559.96 0.0013948240000000
 6560.39 0.0014076210000000
 6560.82 0.0014276370000000
 6561.25 0.0014498360000000
 6561.68 0.0014766430000000
 6562.11 0.0015046360000000
 6562.54 0.0015335640000000
 6562.97 0.0015620020000000
 6563.40 0.0015882360000000
 6563.83 0.0016123440000000
 6564.26 0.0016318560000000
 6564.70 0.0016488360000000
 6565.13 0.0016618740000000
 6565.56 0.0016706380000000
 6565.99 0.0016768450000000
 6566.42 0.0016796000000000
 6566.85 0.0016815440000000
 6567.28 0.0016836010000000
 6567.71 0.0016856040000000
 6568.14 0.0016890890000000
 6568.58 0.0016968060000000
 6569.01 0.0017078480000000
 6569.44 0.0017242750000000
 6569.87 0.0017464830000000
 6570.30 0.0017729600000000
 6570.73 0.0018047720000000
 6571.17 0.0018397540000000
 6571.60 0.0018773610000000
 6572.03 0.0019158330000000
 6572.46 0.0019541450000000
 6572.89 0.0019912660000000
 6573.33 0.0020248180000000
 6573.76 0.0020554580000000
 6574.19 0.0020798120000000
 6574.62 0.0021001530000000
 6575.05 0.0021142860000000
 6575.49 0.0021229010000000
 6575.92 0.0021281950000000
 6576.35 0.0021274190000000
 6576.78 0.0021246710000000
 6577.22 0.0021212160000000
 6577.65 0.0021161920000000
 6578.08 0.0021142430000000
 6578.51 0.0021166890000000
 6578.95 0.0021216120000000
 6579.38 0.0021326020000000
 6579.81 0.0021521710000000
 6580.25 0.0021754560000000
 6580.68 0.0022068470000000
 6581.11 0.0022421250000000
 6581.55 0.0022825010000000
 6581.98 0.0023252080000000
 6582.41 0.0023695250000000
 6582.85 0.0024144490000000
 6583.28 0.0024570240000000
 6583.71 0.0024979420000000
 6584.15 0.0025348610000000
 6584.58 0.0025675260000000
 6585.01 0.0025949010000000
 6585.45 0.0026168300000000
 6585.88 0.0026351800000000
 6586.31 0.0026487690000000
 6586.75 0.0026596040000000
 6587.18 0.0026702350000000
 6587.62 0.0026802000000000
 6588.05 0.0026920620000000
 6588.48 0.0027083540000000
 6588.92 0.0027276970000000
 6589.35 0.0027532890000000
 6589.79 0.0027838010000000
 6590.22 0.0028202380000000
 6590.65 0.0028618980000000
 6591.09 0.0029083470000000
 6591.52 0.0029587900000000
 6591.96 0.0030110810000000
 6592.39 0.0030645770000000
 6592.83 0.0031184710000000
 6593.26 0.0031694720000000
 6593.70 0.0032183560000000
 6594.13 0.0032630080000000
 6594.57 0.0033020540000000
 6595.00 0.0033357860000000
 6595.44 0.0033630730000000
 6595.87 0.0033862620000000
 6596.31 0.0034048760000000
 6596.74 0.0034204300000000
 6597.18 0.0034357120000000
 6597.61 0.0034510050000000
 6598.05 0.0034680100000000
 6598.48 0.0034894080000000
 6598.92 0.0035145140000000
 6599.35 0.0035451100000000
 6599.79 0.0035825160000000
 6600.22 0.0036250460000000
 6600.66 0.0036743420000000
 6601.10 0.0037280590000000
 6601.53 0.0037872550000000
 6601.97 0.0038493180000000
 6602.40 0.0039130250000000
 6602.84 0.0039775040000000
 6603.28 0.0040388680000000
 6603.71 0.0040979910000000
 6604.15 0.0041523330000000
 6604.58 0.0042000970000000
 6605.02 0.0042426550000000
 6605.46 0.0042784000000000
 6605.89 0.0043100050000000
 6606.33 0.0043365490000000
 6606.77 0.0043605630000000
 6607.20 0.0043843780000000
 6607.64 0.0044074810000000
 6608.08 0.0044330660000000
 6608.51 0.0044629330000000
 6608.95 0.0044964140000000
 6609.39 0.0045378230000000
 6609.82 0.0045852490000000
 6610.26 0.0046418430000000
 6610.70 0.0047060670000000
 6611.13 0.0047763620000000
 6611.57 0.0048546530000000
 6612.01 0.0049369710000000
 6612.44 0.0050221610000000
 6612.88 0.0051087900000000
 6613.32 0.0051928550000000
 6613.76 0.0052752860000000
 6614.19 0.0053532080000000
 6614.63 0.0054263980000000
 6615.07 0.0054945020000000
 6615.51 0.0055563980000000
 6615.94 0.0056138080000000
 6616.38 0.0056667110000000
 6616.82 0.0057164230000000
 6617.26 0.0057655620000000
 6617.70 0.0058136840000000
 6618.13 0.0058639870000000
 6618.57 0.0059180970000000
 6619.01 0.0059769650000000
 6619.45 0.0060438810000000
 6619.89 0.0061175970000000
 6620.32 0.0062007290000000
 6620.76 0.0062928310000000
 6621.20 0.0063913800000000
 6621.64 0.0064978920000000
 6622.08 0.0066081990000000
 6622.52 0.0067222750000000
 6622.96 0.0068372350000000
 6623.39 0.0069514060000000
 6623.83 0.0070642640000000
 6624.27 0.0071727720000000
 6624.71 0.0072781230000000
 6625.15 0.0073777450000000
 6625.59 0.0074718170000000
 6626.03 0.0075609190000000
 6626.47 0.0076445390000000
 6626.91 0.0077248440000000
 6627.34 0.0078036120000000
 6627.78 0.0078810470000000
 6628.22 0.0079616540000000
 6628.66 0.0080457530000000
 6629.10 0.0081367950000000
 6629.54 0.0082360280000000
 6629.98 0.0083429910000000
 6630.42 0.0084602650000000
 6630.86 0.0085871360000000
 6631.30 0.0087223460000000
 6631.74 0.0088668720000000
 6632.18 0.0090169270000000
 6632.62 0.0091735540000000
 6633.06 0.0093330580000000
 6633.50 0.0094951240000000
 6633.94 0.0096567470000000
 6634.38 0.0098147770000000
 6634.82 0.0099701560000000
 6635.26 0.0101195520000000
 6635.70 0.0102638170000000
 6636.14 0.0104024270000000
 6636.58 0.0105350590000000
 6637.02 0.0106644640000000
 6637.46 0.0107909640000000
 6637.90 0.0109171510000000
 6638.34 0.0110454560000000
 6638.78 0.0111763610000000
 6639.22 0.0113122440000000
 6639.67 0.0114545740000000
 6640.11 0.0116047110000000
 6640.55 0.0117638410000000
 6640.99 0.0119310600000000
 6641.43 0.0121077830000000
 6641.87 0.0122931900000000
 6642.31 0.0124859160000000
 6642.75 0.0126864130000000
 6643.19 0.0128910770000000
 6643.64 0.0131006800000000
 6644.08 0.0133109150000000
 6644.52 0.0135211470000000
 6644.96 0.0137299240000000
 6645.40 0.0139358650000000
 6645.84 0.0141396220000000
 6646.28 0.0143411460000000
 6646.73 0.0145405630000000
 6647.17 0.0147397230000000
 6647.61 0.0149389590000000
 6648.05 0.0151404620000000
 6648.49 0.0153449350000000
 6648.94 0.0155531960000000
 6649.38 0.0157684970000000
 6649.82 0.0159907230000000
 6650.26 0.0162226570000000
 6650.70 0.0164645250000000
 6651.15 0.0167170180000000
 6651.59 0.0169814550000000
 6652.03 0.0172557070000000
 6652.47 0.0175402990000000
 6652.92 0.0178332430000000
 6653.36 0.0181323020000000
 6653.80 0.0184369240000000
 6654.25 0.0187446260000000
 6654.69 0.0190548390000000
 6655.13 0.0193664200000000
 6655.57 0.0196797070000000
 6656.02 0.0199930340000000
 6656.46 0.0203053530000000
 6656.90 0.0206167850000000
 6657.35 0.0209262650000000
 6657.79 0.0212343720000000
 6658.23 0.0215437950000000
 6658.68 0.0218538780000000
 6659.12 0.0221708310000000
 6659.56 0.0224950280000000
 6660.01 0.0228292780000000
 6660.45 0.0231760180000000
 6660.89 0.0235352270000000
 6661.34 0.0239083500000000
 6661.78 0.0242956110000000
 6662.23 0.0246960240000000
 6662.67 0.0251107220000000
 6663.11 0.0255364610000000
 6663.56 0.0259753270000000
 6664.00 0.0264221490000000
 6664.45 0.0268783790000000
 6664.89 0.0273390710000000
 6665.33 0.0278035300000000
 6665.78 0.0282715320000000
 6666.22 0.0287411040000000
 6666.67 0.0292122060000000
 6667.11 0.0296847210000000
 6667.56 0.0301589400000000
 6668.00 0.0306358330000000
 6668.44 0.0311165650000000
 6668.89 0.0316029280000000
 6669.33 0.0320991260000000
 6669.78 0.0326049550000000
 6670.22 0.0331245450000000
 6670.67 0.0336579610000000
 6671.11 0.0342078720000000
 6671.56 0.0347753400000000
 6672.00 0.0353613760000000
 6672.45 0.0359680680000000
 6672.89 0.0365943890000000
 6673.34 0.0372420310000000
 6673.79 0.0379089570000000
 6674.23 0.0386003180000000
 6674.68 0.0393107560000000
 6675.12 0.0400386340000000
 6675.57 0.0407871980000000
 6676.01 0.0415471550000000
 6676.46 0.0423146090000000
 6676.90 0.0430893810000000
 6677.35 0.0438720090000000
 6677.80 0.0446599810000000
 6678.24 0.0454548570000000
 6678.69 0.0462560680000000
 6679.13 0.0470668360000000
 6679.58 0.0478870740000000
 6680.03 0.0487195330000000
 6680.47 0.0495636650000000
 6680.92 0.0504248590000000
 6681.37 0.0513115060000000
 6681.81 0.0522212360000000
 6682.26 0.0531563420000000
 6682.71 0.0541229160000000
 6683.15 0.0551182440000000
 6683.60 0.0561457380000000
 6684.05 0.0571950700000000
 6684.49 0.0582703700000000
 6684.94 0.0593636880000000
 6685.39 0.0604781690000000
 6685.83 0.0616119840000000
 6686.28 0.0627625100000000
 6686.73 0.0639310680000000
 6687.17 0.0651162230000000
 6687.62 0.0663136750000000
 6688.07 0.0675284400000000
 6688.52 0.0687631000000000
 6688.96 0.0700179630000000
 6689.41 0.0712963210000000
 6689.86 0.0725952910000000
 6690.31 0.0739097300000000
 6690.75 0.0752415580000000
 6691.20 0.0765964480000000
 6691.65 0.0779727370000000
 6692.10 0.0793761560000000
 6692.54 0.0808096660000000
 6692.99 0.0822749550000000
 6693.44 0.0837791220000000
 6693.89 0.0853164630000000
 6694.34 0.0869022820000000
 6694.78 0.0885223690000000
 6695.23 0.0901929220000000
 6695.68 0.0919156570000000
 6696.13 0.0936705260000000
 6696.58 0.0954663620000000
 6697.03 0.0973138020000000
 6697.48 0.0992285350000000
 6697.92 0.1011848830000000
 6698.37 0.1031791170000000
 6698.82 0.1052109570000000
 6699.27 0.1072732130000000
 6699.72 0.1093713260000000
 6700.17 0.1115072790000000
 6700.62 0.1136759140000000
 6701.07 0.1158767760000000
 6701.51 0.1181109760000000
 6701.96 0.1203817700000000
 6702.41 0.1226918700000000
 6702.86 0.1250434840000000
 6703.31 0.1274450630000000
 6703.76 0.1298955870000000
 6704.21 0.1324006660000000
 6704.66 0.1349594340000000
 6705.11 0.1375793890000000
 6705.56 0.1402715920000000
 6706.01 0.1430203570000000
 6706.46 0.1458406330000000
 6706.91 0.1487256170000000
 6707.36 0.1516938490000000
 6707.81 0.1547203620000000
 6708.26 0.1578050340000000
 6708.71 0.1609576740000000
 6709.16 0.1641694660000000
 6709.61 0.1674412220000000
 6710.06 0.1707623900000000
 6710.51 0.1741323880000000
 6710.96 0.1775496820000000
 6711.41 0.1810104100000000
 6711.86 0.1845185130000000
 6712.31 0.1880774160000000
 6712.76 0.1916883120000000
 6713.21 0.1953596280000000
 6713.66 0.1990942290000000
 6714.11 0.2028808270000000
 6714.56 0.2067449760000000
 6715.01 0.2106700070000000
 6715.47 0.2146752540000000
 6715.92 0.2187444440000000
 6716.37 0.2228869440000000
 6716.82 0.2271058120000000
 6717.27 0.2314070780000000
 6717.72 0.2357679680000000
 6718.17 0.2401895580000000
 6718.62 0.2446756670000000
 6719.08 0.2492138440000000
 6719.53 0.2538025200000000
 6719.98 0.2584402190000000
 6720.43 0.2631238560000000
 6720.88 0.2678558480000000
 6721.33 0.2726366100000000
 6721.79 0.2774676300000000
 6722.24 0.2823532720000000
 6722.69 0.2872938850000000
 6723.14 0.2922965710000000
 6723.59 0.2973657020000000
 6724.05 0.3024907270000000
 6724.50 0.3077008630000000
 6724.95 0.3129817300000000
 6725.40 0.3183612120000000
 6725.85 0.3238170460000000
 6726.31 0.3293722430000000
 6726.76 0.3350274890000000
 6727.21 0.3407656100000000
 6727.66 0.3465816290000000
 6728.12 0.3524670710000000
 6728.57 0.3584216690000000
 6729.02 0.3644503290000000
 6729.48 0.3705711960000000
 6729.93 0.3767472220000000
 6730.38 0.3829314280000000
 6730.83 0.3891418390000000
 6731.29 0.3953913490000000
 6731.74 0.4016768770000000
 6732.19 0.4079714710000000
 6732.65 0.4142737980000000
 6733.10 0.4205957470000000
 6733.55 0.4269380310000000
 6734.01 0.4333052260000000
 6734.46 0.4397127090000000
 6734.91 0.4461535150000000
 6735.37 0.4526328680000000
 6735.82 0.4591449700000000
 6736.27 0.4657137980000000
 6736.73 0.4723396390000000
 6737.18 0.4790350080000000
 6737.64 0.4858010200000000
 6738.09 0.4926364110000000
 6738.54 0.4995420180000000
 6739.00 0.5065226710000000
 6739.45 0.5135870280000000
 6739.91 0.5207249360000000
 6740.36 0.5279288120000000
 6740.82 0.5351941590000000
 6741.27 0.5424904760000000
 6741.72 0.5498218520000000
 6742.18 0.5571605140000000
 6742.63 0.5645069410000000
 6743.09 0.5718523070000000
 6743.54 0.5791899130000000
 6744.00 0.5865179730000000
 6744.45 0.5938276150000000
 6744.91 0.6011192040000000
 6745.36 0.6083828830000000
 6745.82 0.6156335270000000
 6746.27 0.6228901760000000
 6746.73 0.6301555320000000
 6747.18 0.6374461290000000
 6747.64 0.6447636710000000
 6748.09 0.6521050060000000
 6748.55 0.6594744250000000
 6749.00 0.6668568950000000
 6749.46 0.6742439780000000
 6749.92 0.6816360970000001
 6750.37 0.6890269400000000
 6750.83 0.6964194910000000
 6751.28 0.7038215070000000
 6751.74 0.7112284700000000
 6752.19 0.7186031090000000
 6752.65 0.7259549290000000
 6753.11 0.7332149740000000
 6753.56 0.7403797260000000
 6754.02 0.7474107560000000
 6754.47 0.7542700580000000
 6754.93 0.7609971540000000
 6755.39 0.7675212880000000
 6755.84 0.7739248850000000
 6756.30 0.7801601180000000
 6756.76 0.7862360510000000
 6757.21 0.7921716920000000
 6757.67 0.7979806280000000
 6758.13 0.8036694530000000
 6758.58 0.8092402359999999
 6759.04 0.8146990440000000
 6759.50 0.8200481140000000
 6759.95 0.8252953159999999
 6760.41 0.8304327010000000
 6760.87 0.8354729920000000
 6761.33 0.8403945830000000
 6761.78 0.8452356400000000
 6762.24 0.8499892890000000
 6762.70 0.8546591470000000
 6763.15 0.8592420220000000
 6763.61 0.8637394920000000
 6764.07 0.8681549980000000
 6764.53 0.8724850720000000
 6764.98 0.8767499180000000
 6765.44 0.8809309350000000
 6765.90 0.8850355440000000
 6766.36 0.8890155870000001
 6766.82 0.8928618620000000
 6767.27 0.8966272170000000
 6767.73 0.9003272280000000
 6768.19 0.9039604130000000
 6768.65 0.9075345290000000
 6769.11 0.9110050830000000
 6769.56 0.9143142850000000
 6770.02 0.9173798160000000
 6770.48 0.9201425720000000
 6770.94 0.9226083420000000
 6771.40 0.9246191910000000
 6771.86 0.9264216450000000
 6772.31 0.9283734060000000
 6772.77 0.9304026600000000
 6773.23 0.9324848070000000
 6773.69 0.9346272070000000
 6774.15 0.9367418199999999
 6774.61 0.9388277240000000
 6775.07 0.9408459620000000
 6775.53 0.9427547990000000
 6775.99 0.9445751690000000
 6776.45 0.9463351300000000
 6776.90 0.9480275600000000
 6777.36 0.9496244850000000
 6777.82 0.9511506380000000
 6778.28 0.9525953470000000
 6778.74 0.9539558070000000
 6779.20 0.9552412310000000
 6779.66 0.9564646430000000
 6780.12 0.9576238410000000
 6780.58 0.9587262009999999
 6781.04 0.9597570880000000
 6781.50 0.9607206010000000
 6781.96 0.9616065160000000
 6782.42 0.9624080100000000
 6782.88 0.9631310950000000
 6783.34 0.9637665580000000
 6783.80 0.9643272150000000
 6784.26 0.9647880270000000
 6784.72 0.9651788250000000
 6785.18 0.9654430540000000
 6785.64 0.9656192980000000
 6786.10 0.9657508180000000
 6786.56 0.9657233280000000
 6787.02 0.9655814930000000
 6787.48 0.9653471640000000
 6787.94 0.9650411620000000
 6788.41 0.9646650030000000
 6788.87 0.9642245010000000
 6789.33 0.9637399910000000
 6789.79 0.9631998170000000
 6790.25 0.9626131560000000
 6790.71 0.9619716370000000
 6791.17 0.9612963130000000
 6791.63 0.9605809730000000
 6792.09 0.9598552920000000
 6792.56 0.9591258660000000
 6793.02 0.9583980450000000
 6793.48 0.9576790880000000
 6793.94 0.9569654610000000
 6794.40 0.9562564530000000
 6794.86 0.9555526310000000
 6795.32 0.9548548540000000
 6795.79 0.9541630790000000
 6796.25 0.9534811930000000
 6796.71 0.9528097110000000
 6797.17 0.9521355280000000
 6797.63 0.9514562840000000
 6798.10 0.9507601140000000
 6798.56 0.9500423700000000
 6799.02 0.9493052440000000
 6799.48 0.9485447620000000
 6799.95 0.9477693430000000
 6800.41 0.9469861540000000
 6800.87 0.9461977850000000
 6801.33 0.9454167560000000
 6801.80 0.9446414460000000
 6802.26 0.9438789570000000
 6802.72 0.9431282270000000
 6803.18 0.9423936120000000
 6803.65 0.9416750380000000
 6804.11 0.9409708800000000
 6804.57 0.9402852310000001
 6805.04 0.9395991030000000
 6805.50 0.9388933330000000
 6805.96 0.9381763370000000
 6806.43 0.9374444400000000
 6806.89 0.9367069360000000
 6807.35 0.9359886810000000
 6807.82 0.9352843620000000
 6808.28 0.9345964490000001
 6808.74 0.9339240630000000
 6809.21 0.9332731050000000
 6809.67 0.9326410979999999
 6810.13 0.9320413710000000
 6810.60 0.9314718870000001
 6811.06 0.9309393750000000
 6811.53 0.9304410210000000
 6811.99 0.9299838530000000
 6812.45 0.9295692440000000
 6812.92 0.9291973300000000
 6813.38 0.9288758459999999
 6813.85 0.9285936040000000
 6814.31 0.9283499410000000
 6814.77 0.9281369030000000
 6815.24 0.9279533200000000
 6815.70 0.9277933170000000
 6816.17 0.9276542040000000
 6816.63 0.9275339390000000
 6817.10 0.9274196630000000
 6817.56 0.9273145020000000
 6818.03 0.9272176370000000
 6818.49 0.9271306470000000
 6818.96 0.9270575680000001
 6819.42 0.9269956790000000
 6819.89 0.9269538010000000
 6820.35 0.9269518640000000
 6820.82 0.9269526940000000
 6821.28 0.9269686180000000
 6821.75 0.9270371930000000
 6822.21 0.9271267820000000
 6822.68 0.9272577560000000
 6823.14 0.9274164240000000
 6823.61 0.9276122610000000
 6824.08 0.9278377090000000
 6824.54 0.9280962260000000
 6825.01 0.9283834140000000
 6825.47 0.9286985770000000
 6825.94 0.9290372340000000
 6826.40 0.9293899110000000
 6826.87 0.9297599640000000
 6827.34 0.9301473179999999
 6827.80 0.9305435510000000
 6828.27 0.9309476220000000
 6828.74 0.9313580940000000
 6829.20 0.9317757129999999
 6829.67 0.9322004870000000
 6830.13 0.9326345650000000
 6830.60 0.9330788050000000
 6831.07 0.9335323350000000
 6831.53 0.9339941950000000
 6832.00 0.9344677630000000
 6832.47 0.9349558140000001
 6832.93 0.9354576660000000
 6833.40 0.9359737260000000
 6833.87 0.9365039590000001
 6834.34 0.9370471650000000
 6834.80 0.9376040640000000
 6835.27 0.9381758500000000
 6835.74 0.9387626270000000
 6836.20 0.9393501720000000
 6836.67 0.9399386340000000
 6837.14 0.9405238600000000
 6837.61 0.9411061330000000
 6838.07 0.9417030850000000
 6838.54 0.9423134970000000
 6839.01 0.9429348720000000
 6839.48 0.9435702020000000
 6839.95 0.9442193010000000
 6840.41 0.9448851290000000
 6840.88 0.9455645260000000
 6841.35 0.9462526340000000
 6841.82 0.9469482910000000
 6842.29 0.9476404940000001
 6842.75 0.9483301130000000
 6843.22 0.9490058000000000
 6843.69 0.9496683100000000
 6844.16 0.9503155900000000
 6844.63 0.9509457900000000
 6845.10 0.9515705460000000
 6845.56 0.9521874450000000
 6846.03 0.9528169090000000
 6846.50 0.9534710380000000
 6846.97 0.9541492200000000
 6847.44 0.9548735400000000
 6847.91 0.9556409250000000
 6848.38 0.9564865070000000
 6848.85 0.9573887750000000
 6849.32 0.9583585100000001
 6849.78 0.9593772810000000
 6850.25 0.9604390810000000
 6850.72 0.9615472520000000
 6851.19 0.9626855890000000
 6851.66 0.9638578140000000
 6852.13 0.9650379390000000
 6852.60 0.9662242250000000
 6853.07 0.9674021200000000
 6853.54 0.9685662510000000
 6854.01 0.9697133420000000
 6854.48 0.9708383450000000
 6854.95 0.9719443520000000
 6855.42 0.9730315020000000
 6855.89 0.9741018080000000
 6856.36 0.9751583440000000
 6856.83 0.9762018040000000
