# HIMAWARI9 relative spectral response function for band 11
# (see http://www.data.jma.go.jp/mscweb/en/himawari89/space_segment/spsg_ahi.html#band)
# converted from 
# http://www.data.jma.go.jp/mscweb/en/himawari89/space_segment/srf_201309/AHI-08_SpectralResponsivity.zip
# http://www.data.jma.go.jp/mscweb/en/himawari89/space_segment/srf_201310/AHI-09_SpectralResponsivity.zip
# 
# LAMBDA   RSR
# 
 8181.30 0.0009294703287000
 8181.97 0.0011507796660000
 8182.64 0.0011813649790000
 8183.31 0.0011924304190000
 8183.98 0.0011978861100000
 8184.65 0.0012051235030000
 8185.32 0.0012132474920000
 8185.99 0.0012224277990000
 8186.66 0.0012326291810000
 8187.33 0.0012439068650000
 8188.00 0.0012562799810000
 8188.67 0.0012697259510000
 8189.34 0.0012841993000000
 8190.01 0.0012996946330000
 8190.68 0.0013161334220000
 8191.35 0.0013334255180000
 8192.02 0.0013514490480000
 8192.69 0.0013700244950000
 8193.36 0.0013890639010000
 8194.03 0.0014085372520000
 8194.71 0.0014281974200000
 8195.38 0.0014480148270000
 8196.05 0.0014678962380000
 8196.72 0.0014876123900000
 8197.39 0.0015072210370000
 8198.07 0.0015266545660000
 8198.74 0.0015457643780000
 8199.41 0.0015645621950000
 8200.08 0.0015831033110000
 8200.75 0.0016013796240000
 8201.43 0.0016191924460000
 8202.10 0.0016365619670000
 8202.77 0.0016536541890000
 8203.45 0.0016704311380000
 8204.12 0.0016869183330000
 8204.79 0.0017031423300000
 8205.46 0.0017191035120000
 8206.14 0.0017348167840000
 8206.81 0.0017502547590000
 8207.49 0.0017654197740000
 8208.16 0.0017803374900000
 8208.83 0.0017949615150000
 8209.51 0.0018094282390000
 8210.18 0.0018237789500000
 8210.85 0.0018380335800000
 8211.53 0.0018523624380000
 8212.20 0.0018668381530000
 8212.88 0.0018815343920000
 8213.55 0.0018965818270000
 8214.23 0.0019121841910000
 8214.90 0.0019285094520000
 8215.58 0.0019457028110000
 8216.25 0.0019637281860000
 8216.93 0.0019828746420000
 8217.60 0.0020032479300000
 8218.28 0.0020246806120000
 8218.95 0.0020472288960000
 8219.63 0.0020711149740000
 8220.30 0.0020960085720000
 8220.98 0.0021217860430000
 8221.66 0.0021483950360000
 8222.33 0.0021755584800000
 8223.01 0.0022031100970000
 8223.68 0.0022308650090000
 8224.36 0.0022583706800000
 8225.04 0.0022854500070000
 8225.71 0.0023120270920000
 8226.39 0.0023376656480000
 8227.07 0.0023623763350000
 8227.74 0.0023863768730000
 8228.42 0.0024090400420000
 8229.10 0.0024306599410000
 8229.78 0.0024517061160000
 8230.45 0.0024722431310000
 8231.13 0.0024926244100000
 8231.81 0.0025130831290000
 8232.49 0.0025340003140000
 8233.16 0.0025557455200000
 8233.84 0.0025787720840000
 8234.52 0.0026033286790000
 8235.20 0.0026298279290000
 8235.88 0.0026587295710000
 8236.55 0.0026898993690000
 8237.23 0.0027234979400000
 8237.91 0.0027596764620000
 8238.59 0.0027983542220000
 8239.27 0.0028393277470000
 8239.95 0.0028824318980000
 8240.63 0.0029272187470000
 8241.31 0.0029735171380000
 8241.98 0.0030211218170000
 8242.66 0.0030695785250000
 8243.34 0.0031183733610000
 8244.02 0.0031672388590000
 8244.70 0.0032158403910000
 8245.38 0.0032638995480000
 8246.06 0.0033113963770000
 8246.74 0.0033582798320000
 8247.42 0.0034046519900000
 8248.10 0.0034505601950000
 8248.78 0.0034960375440000
 8249.46 0.0035414692120000
 8250.14 0.0035871375030000
 8250.83 0.0036333628360000
 8251.51 0.0036805675370000
 8252.19 0.0037290207140000
 8252.87 0.0037790541650000
 8253.55 0.0038311824210000
 8254.23 0.0038853087770000
 8254.91 0.0039417844430000
 8255.59 0.0040010367730000
 8256.27 0.0040627719410000
 8256.96 0.0041267984320000
 8257.64 0.0041936005200000
 8258.32 0.0042625705490000
 8259.00 0.0043334838550000
 8259.68 0.0044062660160000
 8260.37 0.0044807795480000
 8261.05 0.0045567789710000
 8261.73 0.0046343124540000
 8262.41 0.0047127558430000
 8263.10 0.0047922451640000
 8263.78 0.0048729290950000
 8264.46 0.0049544582570000
 8265.15 0.0050370331340000
 8265.83 0.0051209327110000
 8266.51 0.0052061340570000
 8267.20 0.0052928020100000
 8267.88 0.0053811137330000
 8268.56 0.0054716685260000
 8269.25 0.0055644928590000
 8269.93 0.0056595739690000
 8270.61 0.0057574361710000
 8271.30 0.0058580967070000
 8271.98 0.0059618453810000
 8272.67 0.0060687701960000
 8273.35 0.0061787488150000
 8274.04 0.0062915834570000
 8274.72 0.0064071814450000
 8275.41 0.0065257743900000
 8276.09 0.0066471250950000
 8276.78 0.0067715338070000
 8277.46 0.0068984568210000
 8278.15 0.0070279009130000
 8278.83 0.0071596784730000
 8279.52 0.0072937125300000
 8280.20 0.0074301143590000
 8280.89 0.0075689880350000
 8281.57 0.0077100898180000
 8282.26 0.0078537240420000
 8282.95 0.0080000359250000
 8283.63 0.0081491169850000
 8284.32 0.0083014614780000
 8285.00 0.0084569572940000
 8285.69 0.0086157518800000
 8286.38 0.0087784275240000
 8287.06 0.0089453485300000
 8287.75 0.0091167092890000
 8288.44 0.0092947521780000
 8289.12 0.0094785499420000
 8289.81 0.0096669438030000
 8290.50 0.0098605557620000
 8291.19 0.0100591684800000
 8291.87 0.0102632847900000
 8292.56 0.0104726880300000
 8293.25 0.0106868242400000
 8293.94 0.0109062586700000
 8294.63 0.0111313520400000
 8295.31 0.0113620527100000
 8296.00 0.0115984509900000
 8296.69 0.0118406586600000
 8297.38 0.0120891801200000
 8298.07 0.0123430181200000
 8298.76 0.0126038552800000
 8299.44 0.0128715149800000
 8300.13 0.0131459779500000
 8300.82 0.0134274219300000
 8301.51 0.0137168558100000
 8302.20 0.0140144541400000
 8302.89 0.0143203940500000
 8303.58 0.0146349597400000
 8304.27 0.0149577636100000
 8304.96 0.0152893913200000
 8305.65 0.0156302178600000
 8306.34 0.0159799056900000
 8307.03 0.0163392559600000
 8307.72 0.0167083343700000
 8308.41 0.0170869553700000
 8309.10 0.0174755575900000
 8309.79 0.0178739070800000
 8310.48 0.0182814539900000
 8311.17 0.0186997126600000
 8311.86 0.0191313305500000
 8312.55 0.0195726192500000
 8313.24 0.0200233387300000
 8313.93 0.0204852636900000
 8314.63 0.0209581102000000
 8315.32 0.0214421974700000
 8316.01 0.0219383488900000
 8316.70 0.0224465633300000
 8317.39 0.0229673789500000
 8318.08 0.0235013007900000
 8318.78 0.0240489857700000
 8319.47 0.0246109158700000
 8320.16 0.0251886586500000
 8320.85 0.0257820467400000
 8321.54 0.0263923619100000
 8322.24 0.0270207610900000
 8322.93 0.0276683248100000
 8323.62 0.0283389724800000
 8324.32 0.0290298606000000
 8325.01 0.0297417093700000
 8325.70 0.0304745910600000
 8326.39 0.0312286606100000
 8327.09 0.0320047614500000
 8327.78 0.0328034074700000
 8328.48 0.0336237086800000
 8329.17 0.0344681545400000
 8329.86 0.0353352455900000
 8330.56 0.0362261303700000
 8331.25 0.0371416665900000
 8331.94 0.0380828423900000
 8332.64 0.0390502254700000
 8333.33 0.0400439392900000
 8334.03 0.0410644206700000
 8334.72 0.0421135061800000
 8335.42 0.0431899048000000
 8336.11 0.0442939822700000
 8336.81 0.0454301102900000
 8337.50 0.0466017942300000
 8338.20 0.0478076847900000
 8338.89 0.0490532474700000
 8339.59 0.0503340339400000
 8340.28 0.0516501772200000
 8340.98 0.0530013418500000
 8341.68 0.0543917717300000
 8342.37 0.0558199442500000
 8343.07 0.0572855786000000
 8343.76 0.0587890743900000
 8344.46 0.0603346477900000
 8345.16 0.0619204299700000
 8345.85 0.0635498971500000
 8346.55 0.0652301177800000
 8347.25 0.0669596016800000
 8347.94 0.0687376550600000
 8348.64 0.0705648878800000
 8349.34 0.0724439083100000
 8350.03 0.0743728112100000
 8350.73 0.0763604573300000
 8351.43 0.0784012149100000
 8352.13 0.0804976603400000
 8352.82 0.0826524508500000
 8353.52 0.0848658392000000
 8354.22 0.0871395832000000
 8354.92 0.0894748340400000
 8355.61 0.0918713083200000
 8356.31 0.0943336346300000
 8357.01 0.0968569547400000
 8357.71 0.0994496384100000
 8358.41 0.1021137687000000
 8359.11 0.1048449867000000
 8359.81 0.1076532795000000
 8360.50 0.1105303173000000
 8361.20 0.1134764756000000
 8361.90 0.1164960665000000
 8362.60 0.1195923591000000
 8363.30 0.1227661035000000
 8364.00 0.1260240115000000
 8364.70 0.1293700083000000
 8365.40 0.1327971544000000
 8366.10 0.1363197042000000
 8366.80 0.1399317054000000
 8367.50 0.1436353233000000
 8368.20 0.1474339766000000
 8368.90 0.1513304625000000
 8369.60 0.1553253125000000
 8370.30 0.1594170713000000
 8371.00 0.1636011089000000
 8371.70 0.1678827069000000
 8372.40 0.1722691991000000
 8373.11 0.1767539546000000
 8373.81 0.1813407513000000
 8374.51 0.1860226608000000
 8375.21 0.1908082576000000
 8375.91 0.1956922578000000
 8376.61 0.2006758166000000
 8377.31 0.2057488590000000
 8378.02 0.2109187508000000
 8378.72 0.2161864247000000
 8379.42 0.2215510546000000
 8380.12 0.2270107769000000
 8380.82 0.2325628759000000
 8381.53 0.2382008434000000
 8382.23 0.2439154578000000
 8382.93 0.2497127853000000
 8383.64 0.2555957106000000
 8384.34 0.2615748466000000
 8385.04 0.2676560531000000
 8385.74 0.2738425029000000
 8386.45 0.2801319175000000
 8387.15 0.2865148008000000
 8387.85 0.2929931041000000
 8388.56 0.2995616471000000
 8389.26 0.3062210220000000
 8389.97 0.3129688894000000
 8390.67 0.3197997348000000
 8391.37 0.3267207490000000
 8392.08 0.3337279795000000
 8392.78 0.3408267180000000
 8393.49 0.3480075606000000
 8394.19 0.3552726785000000
 8394.90 0.3626241381000000
 8395.60 0.3700377909000000
 8396.31 0.3775139493000000
 8397.01 0.3850559114000000
 8397.72 0.3926438746000000
 8398.42 0.4002812446000000
 8399.13 0.4079739222000000
 8399.83 0.4157302664000000
 8400.54 0.4235289885000000
 8401.24 0.4313602486000000
 8401.95 0.4392175020000000
 8402.66 0.4471143491000000
 8403.36 0.4550360810000000
 8404.07 0.4629806026000000
 8404.77 0.4709657698000000
 8405.48 0.4789757117000000
 8406.19 0.4869998891000000
 8406.89 0.4950285324000000
 8407.60 0.5030827302000001
 8408.31 0.5111482523999999
 8409.01 0.5192198235000000
 8409.72 0.5273036925000000
 8410.43 0.5353967239000000
 8411.14 0.5434917304000000
 8411.84 0.5515788640000000
 8412.55 0.5596775083000000
 8413.26 0.5677775410000000
 8413.97 0.5758706139000001
 8414.68 0.5839571032999999
 8415.38 0.5920089828000000
 8416.09 0.6000230005000000
 8416.80 0.6080112847000000
 8417.51 0.6159549965000000
 8418.22 0.6238465720000000
 8418.93 0.6316812302000000
 8419.63 0.6394663545000000
 8420.34 0.6471709368000000
 8421.05 0.6547908003000000
 8421.76 0.6623409815000000
 8422.47 0.6698128947000000
 8423.18 0.6772046027000000
 8423.89 0.6845138145000000
 8424.60 0.6917369571999999
 8425.31 0.6988710750000000
 8426.02 0.7059081705000000
 8426.73 0.7128119945000000
 8427.44 0.7196551522000000
 8428.15 0.7264152307000000
 8428.86 0.7330553821000000
 8429.57 0.7395998840000000
 8430.28 0.7460538872000000
 8430.99 0.7524133555000000
 8431.70 0.7586218474000000
 8432.41 0.7647684836000000
 8433.13 0.7708509683000000
 8433.84 0.7768045448000001
 8434.55 0.7827126135000000
 8435.26 0.7885315322999999
 8435.97 0.7942343673000000
 8436.68 0.7998069891000000
 8437.39 0.8052667297000000
 8438.11 0.8106201512000000
 8438.82 0.8158557524000000
 8439.53 0.8209850093000000
 8440.24 0.8259944753000000
 8440.96 0.8308726339000000
 8441.67 0.8356073417000000
 8442.38 0.8402025804000000
 8443.09 0.8446716302000000
 8443.81 0.8490370693000000
 8444.52 0.8532539039000000
 8445.23 0.8573476189000000
 8445.95 0.8613155903000000
 8446.66 0.8651510048000000
 8447.37 0.8688513013000000
 8448.09 0.8724226163000000
 8448.80 0.8758875055999999
 8449.51 0.8792911025000000
 8450.23 0.8825938126000000
 8450.94 0.8857787709000000
 8451.66 0.8890249147000000
 8452.37 0.8921703770000000
 8453.09 0.8950236679000000
 8453.80 0.8974455084000000
 8454.51 0.8997361417000000
 8455.23 0.9019242647000000
 8455.94 0.9040228292000000
 8456.66 0.9060247674000000
 8457.37 0.9079251879000000
 8458.09 0.9097285286000000
 8458.81 0.9114226678000000
 8459.52 0.9130077492999999
 8460.24 0.9144988934000000
 8460.95 0.9158890705000000
 8461.67 0.9171705730000000
 8462.38 0.9183590630000000
 8463.10 0.9194643438000000
 8463.82 0.9204924876000000
 8464.53 0.9214746827000000
 8465.25 0.9224297902000000
 8465.97 0.9233734452000000
 8466.68 0.9243211077000000
 8467.40 0.9252751858000000
 8468.12 0.9262353096000000
 8468.83 0.9272005837000000
 8469.55 0.9281658277000000
 8470.27 0.9291256981000000
 8470.99 0.9300747383000000
 8471.70 0.9310030956999999
 8472.42 0.9318948350000000
 8473.14 0.9327359865000000
 8473.86 0.9335118439000000
 8474.58 0.9342075903000000
 8475.29 0.9348164553000000
 8476.01 0.9353399317000000
 8476.73 0.9357749680000000
 8477.45 0.9361292827000000
 8478.17 0.9364148889000000
 8478.89 0.9366426301000000
 8479.61 0.9368342504000000
 8480.33 0.9369890814000000
 8481.04 0.9371146048000000
 8481.76 0.9372203536000000
 8482.48 0.9373435315999999
 8483.20 0.9375005835000000
 8483.92 0.9377171899000000
 8484.64 0.9379924274000000
 8485.36 0.9383118437000000
 8486.08 0.9386713373000000
 8486.80 0.9390738886000000
 8487.52 0.9395102047000000
 8488.24 0.9399803476000000
 8488.96 0.9404845939000001
 8489.69 0.9410087548000000
 8490.41 0.9415745873000000
 8491.13 0.9421512331000000
 8491.85 0.9427013686000000
 8492.57 0.9432141806000000
 8493.29 0.9436879749000000
 8494.01 0.9441215219000000
 8494.73 0.9445111228000000
 8495.45 0.9448578864000000
 8496.18 0.9451686684000000
 8496.90 0.9454504148000000
 8497.62 0.9457033494000000
 8498.34 0.9459393832000000
 8499.07 0.9461663560000000
 8499.79 0.9463938246000000
 8500.51 0.9466306469000000
 8501.23 0.9468818385000000
 8501.96 0.9471607490000000
 8502.68 0.9474719868000000
 8503.40 0.9478118987000000
 8504.12 0.9481782112000000
 8504.85 0.9485674546000000
 8505.57 0.9489665809000000
 8506.29 0.9493636258000000
 8507.02 0.9497466019000000
 8507.74 0.9501063326000000
 8508.47 0.9504358533000000
 8509.19 0.9507318697000000
 8509.91 0.9509916631000001
 8510.64 0.9511964143000000
 8511.36 0.9513298392000000
 8512.09 0.9513889460000000
 8512.81 0.9513802616000000
 8513.54 0.9513197887000000
 8514.26 0.9511874862000000
 8514.99 0.9510136315000000
 8515.71 0.9508055147000000
 8516.44 0.9505776900000000
 8517.16 0.9503369505000000
 8517.89 0.9500951750000000
 8518.61 0.9498709934000000
 8519.34 0.9496850058000000
 8520.06 0.9495435255000000
 8520.79 0.9494548404000001
 8521.52 0.9494312808000001
 8522.24 0.9494729935000000
 8522.97 0.9495629016000000
 8523.70 0.9496936883000000
 8524.42 0.9498552966000000
 8525.15 0.9500377514000000
 8525.88 0.9502283128000000
 8526.60 0.9504080430000000
 8527.33 0.9505531104000000
 8528.06 0.9506527912000000
 8528.78 0.9506955157000000
 8529.51 0.9506716100000000
 8530.24 0.9505751779000000
 8530.97 0.9503555826000000
 8531.70 0.9500712071000000
 8532.42 0.9497235302000000
 8533.15 0.9493190925000000
 8533.88 0.9488676004000000
 8534.61 0.9483941278000000
 8535.34 0.9479190751000000
 8536.06 0.9474595447000000
 8536.79 0.9470312770000000
 8537.52 0.9466391746000000
 8538.25 0.9462925700000000
 8538.98 0.9459928049000000
 8539.71 0.9457551049000000
 8540.44 0.9455710112000000
 8541.17 0.9454233232000000
 8541.90 0.9452971460000000
 8542.63 0.9451887356000001
 8543.36 0.9450799254000000
 8544.09 0.9449577358000000
 8544.82 0.9448030423000000
 8545.55 0.9446142222000000
 8546.28 0.9443881881000000
 8547.01 0.9441218315000000
 8547.74 0.9438076326000000
 8548.47 0.9434661097000000
 8549.20 0.9430907952000001
 8549.93 0.9426950740000000
 8550.66 0.9422881412000000
 8551.39 0.9418864299000000
 8552.13 0.9414995813000000
 8552.86 0.9411335112000000
 8553.59 0.9408142550000000
 8554.32 0.9405405636000000
 8555.05 0.9403085802000000
 8555.78 0.9401262373000000
 8556.52 0.9399925249000000
 8557.25 0.9398977016000000
 8557.98 0.9398350609000000
 8558.71 0.9397967220000000
 8559.45 0.9397744102000000
 8560.18 0.9397567438000000
 8560.91 0.9397336672000000
 8561.64 0.9396993590000000
 8562.38 0.9396495216000000
 8563.11 0.9395795656000000
 8563.84 0.9394881825000000
 8564.58 0.9393788899000000
 8565.31 0.9392672399000001
 8566.04 0.9391542586000000
 8566.78 0.9390340189000000
 8567.51 0.9389312110000000
 8568.25 0.9388511744000000
 8568.98 0.9387954044000000
 8569.71 0.9387772448000000
 8570.45 0.9388187265000000
 8571.18 0.9389090023000000
 8571.92 0.9390479366000000
 8572.65 0.9392339521000000
 8573.39 0.9394629427000000
 8574.12 0.9397355835000000
 8574.86 0.9400600169000000
 8575.59 0.9404175301000000
 8576.33 0.9408023006000000
 8577.06 0.9412099377000001
 8577.80 0.9416409959000001
 8578.54 0.9420740245000000
 8579.27 0.9425073928000000
 8580.01 0.9429407111000000
 8580.74 0.9433692718000000
 8581.48 0.9437840188000000
 8582.22 0.9441806514000000
 8582.95 0.9445608814999999
 8583.69 0.9449278326000000
 8584.43 0.9452806598000000
 8585.16 0.9456247845000000
 8585.90 0.9459696549000000
 8586.64 0.9463191183000000
 8587.38 0.9466777426000000
 8588.11 0.9470536057000000
 8588.85 0.9474584314000000
 8589.59 0.9479010411000000
 8590.33 0.9483890373000000
 8591.07 0.9489277380000000
 8591.80 0.9495156861000000
 8592.54 0.9501548017000000
 8593.28 0.9508444538000000
 8594.02 0.9515817645000000
 8594.76 0.9523578579000000
 8595.50 0.9531605995000000
 8596.23 0.9539815822000000
 8596.97 0.9548108825000000
 8597.71 0.9556367049000000
 8598.45 0.9564478766000000
 8599.19 0.9572346002000000
 8599.93 0.9579838425000000
 8600.67 0.9587011828999999
 8601.41 0.9593587023000000
 8602.15 0.9599534924999999
 8602.89 0.9604942732000000
 8603.63 0.9609739905000000
 8604.37 0.9614133614000000
 8605.11 0.9618276081000000
 8605.85 0.9622312864000000
 8606.59 0.9626392679000000
 8607.33 0.9630687360000000
 8608.07 0.9635343434000000
 8608.82 0.9640482612000000
 8609.56 0.9646182421000000
 8610.30 0.9652431630000000
 8611.04 0.9659220766000000
 8611.78 0.9666575460000000
 8612.52 0.9674535892000000
 8613.26 0.9683051431000000
 8614.01 0.9691913615000000
 8614.75 0.9701186570000000
 8615.49 0.9710510006000000
 8616.23 0.9719608097000000
 8616.98 0.9728405100000000
 8617.72 0.9736694151000000
 8618.46 0.9744664045000000
 8619.20 0.9752575944000000
 8619.95 0.9760152778000000
 8620.69 0.9766993123000000
 8621.43 0.9773312044000000
 8622.18 0.9779218673000000
 8622.92 0.9784801473000000
 8623.66 0.9790206009000000
 8624.41 0.9795584078000000
 8625.15 0.9801032985000000
 8625.89 0.9806628573000000
 8626.64 0.9812483635000000
 8627.38 0.9818404540000000
 8628.13 0.9824378908000000
 8628.87 0.9830640778000000
 8629.62 0.9837278870000000
 8630.36 0.9844225185000000
 8631.11 0.9851405400000000
 8631.85 0.9858635421000000
 8632.60 0.9865472696000001
 8633.34 0.9871835502000000
 8634.09 0.9877817643000000
 8634.83 0.9883832617000000
 8635.58 0.9890120033000001
 8636.32 0.9896623160000000
 8637.07 0.9903251827000000
 8637.82 0.9909797511000000
 8638.56 0.9916183749000000
 8639.31 0.9922332606000001
 8640.06 0.9928218022000000
 8640.80 0.9934169457000001
 8641.55 0.9940508558000000
 8642.30 0.9947081108000000
 8643.04 0.9953706507000000
 8643.79 0.9960263504000000
 8644.54 0.9966490522000000
 8645.28 0.9972256771000000
 8646.03 0.9977558318999999
 8646.78 0.9982665773000000
 8647.53 0.9987334206000000
 8648.27 0.9991460497000000
 8649.02 0.9994903181000000
 8649.77 0.9997646313000000
 8650.52 0.9999594823000000
 8651.27 0.9999601406000000
 8652.02 0.9998622314000000
 8652.76 0.9997262844000000
 8653.51 0.9995593074000000
 8654.26 0.9993622087000000
 8655.01 0.9991366915000000
 8655.76 0.9988875879000000
 8656.51 0.9986157722000000
 8657.26 0.9983256009000000
 8658.01 0.9980204150999999
 8658.76 0.9977001832000000
 8659.51 0.9973738205000000
 8660.26 0.9970187051000000
 8661.01 0.9966143098000000
 8661.76 0.9961963477000000
 8662.51 0.9958076101000000
 8663.26 0.9954155725000000
 8664.01 0.9950239667000000
 8664.76 0.9946503665999999
 8665.51 0.9943030792999999
 8666.26 0.9939464005000000
 8667.01 0.9935637859999999
 8667.76 0.9932044750000000
 8668.52 0.9929739564000000
 8669.27 0.9927957346000000
 8670.02 0.9926286513000000
 8670.77 0.9924666962000001
 8671.52 0.9923579383000000
 8672.27 0.9923054520000000
 8673.03 0.9922895204000000
 8673.78 0.9923185879999999
 8674.53 0.9923754115000000
 8675.28 0.9924601923000000
 8676.04 0.9925664268000000
 8676.79 0.9926884628000000
 8677.54 0.9928065830000000
