# HIMAWARI8 relative spectral response function for band 4
# (see http://www.data.jma.go.jp/mscweb/en/himawari89/space_segment/spsg_ahi.html#band)
# converted from 
# http://www.data.jma.go.jp/mscweb/en/himawari89/space_segment/srf_201309/AHI-08_SpectralResponsivity.zip
# http://www.data.jma.go.jp/mscweb/en/himawari89/space_segment/srf_201310/AHI-09_SpectralResponsivity.zip
# 
# LAMBDA   RSR
# 
  821.56 0.0009881610000000
  821.63 0.0010756790000000
  821.69 0.0011638220000000
  821.76 0.0012509240000000
  821.83 0.0013353170000000
  821.90 0.0014153340000000
  821.96 0.0014893030000000
  822.03 0.0015563970000000
  822.10 0.0016217800000000
  822.17 0.0016866630000000
  822.23 0.0017510850000000
  822.30 0.0018150820000000
  822.37 0.0018786920000000
  822.44 0.0019419530000000
  822.50 0.0020049020000000
  822.57 0.0020675770000000
  822.64 0.0021300150000000
  822.71 0.0021922550000000
  822.77 0.0022543350000000
  822.84 0.0023162910000000
  822.91 0.0023781620000000
  822.98 0.0024399850000000
  823.05 0.0025013650000000
  823.11 0.0025610920000000
  823.18 0.0026194260000000
  823.25 0.0026767400000000
  823.32 0.0027334100000000
  823.38 0.0027898100000000
  823.45 0.0028463140000000
  823.52 0.0029032990000000
  823.59 0.0029611390000000
  823.66 0.0030202110000000
  823.72 0.0030808910000000
  823.79 0.0031435560000000
  823.86 0.0032085830000000
  823.93 0.0032763490000000
  823.99 0.0033472340000000
  824.06 0.0034217950000000
  824.13 0.0035002150000000
  824.20 0.0035821610000000
  824.27 0.0036672990000000
  824.33 0.0037552920000000
  824.40 0.0038458060000000
  824.47 0.0039385050000000
  824.54 0.0040330520000000
  824.61 0.0041291110000000
  824.67 0.0042263440000000
  824.74 0.0043244150000000
  824.81 0.0044229860000000
  824.88 0.0045217180000000
  824.95 0.0046202750000000
  825.01 0.0047183750000000
  825.08 0.0048174830000000
  825.15 0.0049182280000000
  825.22 0.0050204400000000
  825.29 0.0051239470000000
  825.35 0.0052285780000000
  825.42 0.0053341620000000
  825.49 0.0054405270000000
  825.56 0.0055475010000000
  825.63 0.0056549130000000
  825.70 0.0057625900000000
  825.76 0.0058703590000000
  825.83 0.0059780490000000
  825.90 0.0060854860000000
  825.97 0.0061924980000000
  826.04 0.0062988360000000
  826.10 0.0064041140000000
  826.17 0.0065085600000000
  826.24 0.0066124720000000
  826.31 0.0067161490000000
  826.38 0.0068198910000000
  826.45 0.0069239980000000
  826.51 0.0070287720000000
  826.58 0.0071345110000000
  826.65 0.0072415180000000
  826.72 0.0073500930000000
  826.79 0.0074605390000000
  826.86 0.0075731570000000
  826.92 0.0076882480000000
  826.99 0.0078061170000000
  827.06 0.0079250430000000
  827.13 0.0080426910000000
  827.20 0.0081598760000000
  827.27 0.0082774400000000
  827.34 0.0083962280000000
  827.40 0.0085170830000000
  827.47 0.0086408510000000
  827.54 0.0087683770000000
  827.61 0.0089005090000000
  827.68 0.0090380940000000
  827.75 0.0091819810000000
  827.81 0.0093330190000000
  827.88 0.0094920590000000
  827.95 0.0096599510000000
  828.02 0.0098375730000000
  828.09 0.0100260540000000
  828.16 0.0102258770000000
  828.23 0.0104373270000000
  828.29 0.0106606870000000
  828.36 0.0108962430000000
  828.43 0.0111442800000000
  828.50 0.0114050840000000
  828.57 0.0116789390000000
  828.64 0.0119661330000000
  828.71 0.0122669510000000
  828.78 0.0125816790000000
  828.84 0.0129106060000000
  828.91 0.0132540170000000
  828.98 0.0136122010000000
  829.05 0.0139911220000000
  829.12 0.0144052410000000
  829.19 0.0148539150000000
  829.26 0.0153356660000000
  829.32 0.0158490180000000
  829.39 0.0163924910000000
  829.46 0.0169646060000000
  829.53 0.0175638800000000
  829.60 0.0181888300000000
  829.67 0.0188379730000000
  829.74 0.0195098200000000
  829.81 0.0202028850000000
  829.88 0.0209156790000000
  829.94 0.0216467100000000
  830.01 0.0223949980000000
  830.08 0.0231773100000000
  830.15 0.0240019940000000
  830.22 0.0248685490000000
  830.29 0.0257764730000000
  830.36 0.0267252630000000
  830.43 0.0277144160000000
  830.50 0.0287434280000000
  830.56 0.0298117940000000
  830.63 0.0309190110000000
  830.70 0.0320645730000000
  830.77 0.0332479730000000
  830.84 0.0344687070000000
  830.91 0.0357262670000000
  830.98 0.0370201450000000
  831.05 0.0383596530000000
  831.12 0.0397724050000000
  831.19 0.0412579620000000
  831.26 0.0428139550000000
  831.32 0.0444380090000000
  831.39 0.0461277490000000
  831.46 0.0478807960000000
  831.53 0.0496947700000000
  831.60 0.0515672870000000
  831.67 0.0534959630000000
  831.74 0.0554784080000000
  831.81 0.0575122340000000
  831.88 0.0595950460000000
  831.95 0.0617244510000000
  832.02 0.0638998360000000
  832.09 0.0661634740000000
  832.15 0.0685301200000000
  832.22 0.0709943900000000
  832.29 0.0735509000000000
  832.36 0.0761942550000000
  832.43 0.0789190600000000
  832.50 0.0817199100000000
  832.57 0.0845913980000000
  832.64 0.0875281100000000
  832.71 0.0905246270000000
  832.78 0.0935755230000000
  832.85 0.0966753690000000
  832.92 0.0998187290000000
  832.99 0.1030001620000000
  833.06 0.1062444310000000
  833.13 0.1096054370000000
  833.19 0.1130748860000000
  833.26 0.1166425960000000
  833.33 0.1202983810000000
  833.40 0.1240320380000000
  833.47 0.1278333600000000
  833.54 0.1316921260000000
  833.61 0.1355981060000000
  833.68 0.1395410590000000
  833.75 0.1435107340000000
  833.82 0.1474968700000000
  833.89 0.1514891970000000
  833.96 0.1554774320000000
  834.03 0.1594553570000000
  834.10 0.1634527720000000
  834.17 0.1674786790000000
  834.24 0.1715341500000000
  834.31 0.1756202550000000
  834.38 0.1797380660000000
  834.45 0.1838886570000000
  834.52 0.1880731030000000
  834.59 0.1922924780000000
  834.65 0.1965478590000000
  834.72 0.2008403250000000
  834.79 0.2051709520000000
  834.86 0.2095408230000000
  834.93 0.2139510160000000
  835.00 0.2184026600000000
  835.07 0.2229166980000000
  835.14 0.2275041650000000
  835.21 0.2321567400000000
  835.28 0.2368660970000000
  835.35 0.2416238970000000
  835.42 0.2464217970000000
  835.49 0.2512514440000000
  835.56 0.2561044750000000
  835.63 0.2609725210000000
  835.70 0.2658472040000000
  835.77 0.2707201360000000
  835.84 0.2755829230000000
  835.91 0.2804271610000000
  835.98 0.2852444370000000
  836.05 0.2900364070000000
  836.12 0.2948262330000000
  836.19 0.2996160680000000
  836.26 0.3044066920000000
  836.33 0.3091988900000000
  836.40 0.3139934450000000
  836.47 0.3187911420000000
  836.54 0.3235927670000000
  836.61 0.3283991060000000
  836.68 0.3332109460000000
  836.75 0.3380290750000000
  836.82 0.3428542820000000
  836.89 0.3476873560000000
  836.96 0.3525290880000000
  837.03 0.3573802030000000
  837.10 0.3622404670000000
  837.17 0.3671091830000000
  837.24 0.3719856920000000
  837.31 0.3768693310000000
  837.38 0.3817594390000000
  837.45 0.3866553530000000
  837.52 0.3915564120000000
  837.59 0.3964619500000000
  837.66 0.4013713030000000
  837.73 0.4062838070000000
  837.80 0.4111987950000000
  837.87 0.4161156010000000
  837.94 0.4210335580000000
  838.01 0.4259523450000000
  838.08 0.4308851900000000
  838.15 0.4358361030000000
  838.22 0.4408009070000000
  838.29 0.4457754210000000
  838.36 0.4507554570000000
  838.43 0.4557368280000000
  838.50 0.4607153370000000
  838.57 0.4656867870000000
  838.64 0.4706469760000000
  838.72 0.4755916950000000
  838.79 0.4805167350000000
  838.86 0.4854178790000000
  838.93 0.4902909080000000
  839.00 0.4951315980000000
  839.07 0.4999395670000000
  839.14 0.5047198640000000
  839.21 0.5094755760000000
  839.28 0.5142097850000000
  839.35 0.5189255750000000
  839.42 0.5236260360000000
  839.49 0.5283142580000000
  839.56 0.5329933350000000
  839.63 0.5376663650000000
  839.70 0.5423364500000000
  839.77 0.5470066910000000
  839.84 0.5516801970000000
  839.91 0.5563600780000000
  839.98 0.5610494450000000
  840.05 0.5657500920000000
  840.12 0.5704591480000000
  840.19 0.5751740990000000
  840.27 0.5798925010000000
  840.34 0.5846119110000000
  840.41 0.5893298830000000
  840.48 0.5940439660000000
  840.55 0.5987517100000000
  840.62 0.6034506600000000
  840.69 0.6081383590000000
  840.76 0.6128123480000000
  840.83 0.6174701660000000
  840.90 0.6221093490000000
  840.97 0.6267274300000000
  841.04 0.6313257839999999
  841.11 0.6359176550000000
  841.18 0.6405028100000000
  841.26 0.6450794120000000
  841.33 0.6496456210000000
  841.40 0.6541995960000000
  841.47 0.6587394940000000
  841.54 0.6632634700000000
  841.61 0.6677696770000000
  841.68 0.6722562670000000
  841.75 0.6767213890000000
  841.82 0.6811631900000000
  841.89 0.6855798170000000
  841.96 0.6899694130000000
  842.03 0.6943305820000000
  842.11 0.6986656080000000
  842.18 0.7029762870000000
  842.25 0.7072640400000000
  842.32 0.7115302890000000
  842.39 0.7157764559999999
  842.46 0.7200039670000000
  842.53 0.7242142480000000
  842.60 0.7284087270000000
  842.67 0.7325888330000000
  842.74 0.7367559960000000
  842.82 0.7409116480000000
  842.89 0.7450572230000000
  842.96 0.7491941570000000
  843.03 0.7533248960000000
  843.10 0.7574585760000000
  843.17 0.7615936720000001
  843.24 0.7657259620000000
  843.31 0.7698512190000000
  843.38 0.7739652110000000
  843.45 0.7780637050000000
  843.53 0.7821424600000000
  843.60 0.7861972320000000
  843.67 0.7902237730000000
  843.74 0.7942178310000000
  843.81 0.7981751490000000
  843.88 0.8020914660000000
  843.95 0.8059625170000000
  844.02 0.8097867250000000
  844.10 0.8135931610000000
  844.17 0.8173870170000000
  844.24 0.8211633970000000
  844.31 0.8249173980000000
  844.38 0.8286441170000000
  844.45 0.8323386410000000
  844.52 0.8359960550000000
  844.59 0.8396114390000000
  844.67 0.8431798650000000
  844.74 0.8466964040000000
  844.81 0.8501561200000000
  844.88 0.8535540720000000
  844.95 0.8568853150000000
  845.02 0.8601504129999999
  845.09 0.8634186109999999
  845.17 0.8666994090000000
  845.24 0.8699763910000000
  845.31 0.8732331260000000
  845.38 0.8764531650000000
  845.45 0.8796200430000000
  845.52 0.8827172780000000
  845.59 0.8857283700000000
  845.67 0.8886368059999999
  845.74 0.8914260520000000
  845.81 0.8940795600000000
  845.88 0.8965807640000000
  845.95 0.8989130820000000
  846.02 0.9010709270000000
  846.10 0.9031831470000000
  846.17 0.9052794050000000
  846.24 0.9073444540000000
  846.31 0.9093630320000000
  846.38 0.9113198610000000
  846.45 0.9131996480000000
  846.53 0.9149870840000000
  846.60 0.9166668440000000
  846.67 0.9182235890000000
  846.74 0.9196419640000000
  846.81 0.9209065980000000
  846.88 0.9220021030000000
  846.96 0.9229130780000000
  847.03 0.9236382310000000
  847.10 0.9243124560000000
  847.17 0.9249686400000000
  847.24 0.9256012179999999
  847.31 0.9262046180000000
  847.39 0.9267732630000000
  847.46 0.9273015680000000
  847.53 0.9277839460000000
  847.60 0.9282148030000000
  847.67 0.9285885370000000
  847.74 0.9288995430000000
  847.82 0.9291422110000001
  847.89 0.9293109210000000
  847.96 0.9294000529999999
  848.03 0.9294089980000000
  848.10 0.9293716600000000
  848.18 0.9292975940000000
  848.25 0.9291894400000000
  848.32 0.9290498390000000
  848.39 0.9288814359999999
  848.46 0.9286868780000000
  848.54 0.9284688150000000
  848.61 0.9282299000000001
  848.68 0.9279727880000000
  848.75 0.9277001370000000
  848.82 0.9274146080000000
  848.90 0.9271188640000000
  848.97 0.9268155720000000
  849.04 0.9264937570000000
  849.11 0.9260936770000000
  849.18 0.9256140710000000
  849.26 0.9250620470000001
  849.33 0.9244447180000001
  849.40 0.9237692060000000
  849.47 0.9230426390000001
  849.55 0.9222721550000000
  849.62 0.9214648950000000
  849.69 0.9206280110000000
  849.76 0.9197686600000000
  849.83 0.9188940080000000
  849.91 0.9180112270000000
  849.98 0.9171274970000000
  850.05 0.9162324170000000
  850.12 0.9152819490000000
  850.20 0.9142776400000000
  850.27 0.9132240579999999
  850.34 0.9121257730000000
  850.41 0.9109873620000000
  850.48 0.9098134080000000
  850.56 0.9086084940000000
  850.63 0.9073772130000000
  850.70 0.9061241600000000
  850.77 0.9048539330000001
  850.85 0.9035711390000000
  850.92 0.9022803850000000
  850.99 0.9009862880000000
  851.06 0.8996478560000000
  851.14 0.8982082540000000
  851.21 0.8966874310000000
  851.28 0.8951062250000000
  851.35 0.8934854940000000
  851.43 0.8918461170000000
  851.50 0.8902089970000000
  851.57 0.8885950540000001
  851.64 0.8870252330000000
  851.72 0.8855205000000000
  851.79 0.8841018389999999
  851.86 0.8827902610000000
  851.93 0.8816067930000000
  852.01 0.8805719250000000
  852.08 0.8796206840000000
  852.15 0.8786988190000000
  852.22 0.8778080760000000
  852.30 0.8769502040000000
  852.37 0.8761269540000000
  852.44 0.8753400780000000
  852.51 0.8745913310000000
  852.59 0.8738824690000000
  852.66 0.8732152510000000
  852.73 0.8725914340000001
  852.81 0.8720127820000000
  852.88 0.8714810580000000
  852.95 0.8709980260000000
  853.02 0.8705622669999999
  853.10 0.8701343340000000
  853.17 0.8697063110000000
  853.24 0.8692837700000000
  853.32 0.8688722930000000
  853.39 0.8684774660000000
  853.46 0.8681048800000000
  853.53 0.8677601330000000
  853.61 0.8674488280000000
  853.68 0.8671765740000000
  853.75 0.8669489860000000
  853.83 0.8667716840000000
  853.90 0.8666502940000000
  853.97 0.8665904500000000
  854.04 0.8665985200000000
  854.12 0.8666772619999999
  854.19 0.8668192510000000
  854.26 0.8670163680000000
  854.34 0.8672604880000000
  854.41 0.8675434750000000
  854.48 0.8678571880000000
  854.55 0.8681934740000000
  854.63 0.8685441750000000
  854.70 0.8689011220000000
  854.77 0.8692561390000000
  854.85 0.8696010410000000
  854.92 0.8699276350000000
  854.99 0.8702277200000000
  855.07 0.8705057309999999
  855.14 0.8707777450000000
  855.21 0.8710460550000000
  855.29 0.8713128370000000
  855.36 0.8715802700000000
  855.43 0.8718505330000000
  855.51 0.8721258079999999
  855.58 0.8724082820000000
  855.65 0.8727001400000000
  855.72 0.8730035720000000
  855.80 0.8733207690000000
  855.87 0.8736539250000001
  855.94 0.8740052360000000
  856.02 0.8743771380000001
  856.09 0.8747762680000000
  856.16 0.8752033340000001
  856.24 0.8756563320000000
  856.31 0.8761332560000000
  856.38 0.8766320940000000
  856.46 0.8771508380000000
  856.53 0.8776874720000000
  856.60 0.8782399810000000
  856.68 0.8788063490000000
  856.75 0.8793845560000000
  856.82 0.8799725790000000
  856.90 0.8805683949999999
  856.97 0.8811699790000000
  857.04 0.8817773640000000
  857.12 0.8823978520000000
  857.19 0.8830329280000000
  857.27 0.8836833150000000
  857.34 0.8843497360000000
  857.41 0.8850329160000000
  857.49 0.8857335810000000
  857.56 0.8864524550000000
  857.63 0.8871902650000000
  857.71 0.8879477390000000
  857.78 0.8887256040000000
  857.85 0.8895245899999999
  857.93 0.8903454270000000
  858.00 0.8911888440000000
  858.07 0.8920619319999999
  858.15 0.8929699310000000
  858.22 0.8939112520000000
  858.30 0.8948843040000000
  858.37 0.8958874950000000
  858.44 0.8969192330000000
  858.52 0.8979779210000000
  858.59 0.8990619640000000
  858.66 0.9001697620000000
  858.74 0.9012997149999999
  858.81 0.9024502230000000
  858.89 0.9036196800000000
  858.96 0.9048064820000000
  859.03 0.9060125270000000
  859.11 0.9072617260000000
  859.18 0.9085549979999999
  859.25 0.9098875780000000
  859.33 0.9112546960000000
  859.40 0.9126515760000000
  859.48 0.9140734390000000
  859.55 0.9155155010000000
  859.62 0.9169729700000000
  859.70 0.9184410530000000
  859.77 0.9199149500000000
  859.85 0.9213898570000000
  859.92 0.9228609620000000
  859.99 0.9243234530000000
  860.07 0.9257835540000000
  860.14 0.9272546120000000
  860.22 0.9287359990000000
  860.29 0.9302269800000000
  860.36 0.9317268140000000
  860.44 0.9332347640000000
  860.51 0.9347500900000000
  860.59 0.9362720510000000
  860.66 0.9377999060000000
  860.73 0.9393329120000000
  860.81 0.9408703280000000
  860.88 0.9424114090000000
  860.96 0.9439554110000000
  861.03 0.9455036130000000
  861.10 0.9470724730000000
  861.18 0.9486618270000000
  861.25 0.9502667740000000
  861.33 0.9518824080000000
  861.40 0.9535038179999999
  861.47 0.9551260890000000
  861.55 0.9567442980000000
  861.62 0.9583535190000000
  861.70 0.9599488220000000
  861.77 0.9615252690000000
  861.85 0.9630779200000000
  861.92 0.9646018270000000
  861.99 0.9660920380000000
  862.07 0.9675576000000000
  862.14 0.9690140830000000
  862.22 0.9704600060000000
  862.29 0.9718938029999999
  862.37 0.9733139090000000
  862.44 0.9747187550000000
  862.52 0.9761067710000000
  862.59 0.9774763850000000
  862.66 0.9788260250000000
  862.74 0.9801541160000000
  862.81 0.9814590810000000
  862.89 0.9827393430000000
  862.96 0.9839933210000000
  863.04 0.9852362950000000
  863.11 0.9865633190000000
  863.19 0.9879641350000000
  863.26 0.9894082530000000
  863.33 0.9908651480000000
  863.41 0.9923042650000000
  863.48 0.9936950180000000
  863.56 0.9950067870000000
  863.63 0.9962089220000000
  863.71 0.9972707410000000
  863.78 0.9981615310000000
  863.86 0.9988505450000000
  863.93 0.9993070060000000
  864.01 0.9995008949999999
  864.08 0.9995709280000000
  864.15 0.9996359980000000
  864.23 0.9996960190000000
  864.30 0.9997509060000001
  864.38 0.9998005740000000
  864.45 0.9998449360000000
  864.53 0.9998839070000000
  864.60 0.9999174020000000
  864.68 0.9999453340000000
  864.75 0.9999676180000000
  864.83 0.9999841670000000
  864.90 0.9999948960000000
  864.98 0.9999997180000000
  865.05 0.9998620750000000
  865.13 0.9992026240000000
  865.20 0.9980460460000000
  865.28 0.9964445100000000
  865.35 0.9944502400000000
  865.43 0.9921155160000000
  865.50 0.9894926700000000
  865.58 0.9866340910000000
  865.65 0.9835922200000000
  865.73 0.9804195550000000
  865.80 0.9771686460000000
  865.88 0.9738921000000000
  865.95 0.9706425770000000
  866.03 0.9674361700000000
  866.10 0.9638786160000000
  866.18 0.9598954270000000
  866.25 0.9555456700000000
  866.33 0.9508884750000000
  866.40 0.9459830339999999
  866.48 0.9408885980000000
  866.55 0.9356644820000000
  866.63 0.9303700610000000
  866.70 0.9250647740000000
  866.78 0.9198081200000000
  866.85 0.9146596600000000
  866.93 0.9096790190000000
  867.00 0.9049258040000000
  867.08 0.9003235830000000
  867.15 0.8957635980000000
  867.23 0.8912393470000000
  867.30 0.8867443180000000
  867.38 0.8822719910000000
  867.45 0.8778158440000000
  867.53 0.8733693430000000
  867.60 0.8689259499999999
  867.68 0.8644791210000000
  867.75 0.8600223020000000
  867.83 0.8555489350000000
  867.90 0.8510524550000000
  867.98 0.8465262870000000
  868.06 0.8419696230000000
  868.13 0.8373950170000000
  868.21 0.8328053080000000
  868.28 0.8282027010000000
  868.36 0.8235894070000001
  868.43 0.8189676380000001
  868.51 0.8143396080000000
  868.58 0.8097075340000000
  868.66 0.8050736360000000
  868.73 0.8004401330000001
  868.81 0.7958092510000000
  868.89 0.7911832150000000
  868.96 0.7865642530000000
  869.04 0.7819553299999999
  869.11 0.7773612320000000
  869.19 0.7727792050000000
  869.26 0.7682053550000000
  869.34 0.7636357820000000
  869.41 0.7590665820000000
  869.49 0.7544938490000000
  869.57 0.7499136690000000
  869.64 0.7453221280000000
  869.72 0.7407153050000000
  869.79 0.7360892770000000
  869.87 0.7314401149999999
  869.94 0.7267638880000000
  870.02 0.7220569990000000
  870.09 0.7173242510000000
  870.17 0.7125695470000000
  870.25 0.7077943180000000
  870.32 0.7029999990000000
  870.40 0.6981880220000000
  870.47 0.6933598250000000
  870.55 0.6885168450000000
  870.63 0.6836605220000000
  870.70 0.6787922970000000
  870.78 0.6739136100000001
  870.85 0.6690259079999999
  870.93 0.6641306330000000
  871.00 0.6592291650000000
  871.08 0.6543000780000000
  871.16 0.6493313100000000
  871.23 0.6443313100000000
  871.31 0.6393085350000000
  871.38 0.6342714480000000
  871.46 0.6292285250000000
  871.54 0.6241882479999999
  871.61 0.6191591100000000
