# Provided by ESA in 10/2012
# Important Notes:
# The data contained here correspond to the OLCI Spectral Model CDR derived in 2011.
# The data have been calculated for the camera 4, pointing nadir.
927.74  0.0006
927.75  0.0007
927.76  0.0007
927.77  0.0008
927.78  0.0008
927.79  0.0008
927.80  0.0009
927.81  0.0009
927.82  0.0009
927.83  0.0010
927.84  0.0010
927.85  0.0011
927.86  0.0011
927.87  0.0012
927.88  0.0012
927.89  0.0013
927.90  0.0014
927.91  0.0014
927.92  0.0015
927.93  0.0015
927.94  0.0016
927.95  0.0017
927.96  0.0017
927.97  0.0018
927.98  0.0019
927.99  0.0020
928.00  0.0021
928.01  0.0022
928.02  0.0022
928.03  0.0023
928.04  0.0024
928.05  0.0025
928.06  0.0026
928.07  0.0028
928.08  0.0029
928.09  0.0030
928.10  0.0031
928.11  0.0032
928.12  0.0034
928.13  0.0035
928.14  0.0036
928.15  0.0038
928.16  0.0040
928.17  0.0041
928.18  0.0043
928.19  0.0045
928.20  0.0046
928.21  0.0048
928.22  0.0050
928.23  0.0052
928.24  0.0053
928.25  0.0056
928.26  0.0058
928.27  0.0061
928.28  0.0063
928.29  0.0066
928.30  0.0068
928.31  0.0070
928.32  0.0073
928.33  0.0075
928.34  0.0078
928.35  0.0081
928.36  0.0084
928.37  0.0088
928.38  0.0091
928.39  0.0094
928.40  0.0098
928.41  0.0101
928.42  0.0105
928.43  0.0108
928.44  0.0111
928.45  0.0116
928.46  0.0120
928.47  0.0125
928.48  0.0130
928.49  0.0134
928.50  0.0139
928.51  0.0143
928.52  0.0148
928.53  0.0152
928.54  0.0157
928.55  0.0163
928.56  0.0169
928.57  0.0175
928.58  0.0182
928.59  0.0188
928.60  0.0194
928.61  0.0200
928.62  0.0206
928.63  0.0212
928.64  0.0218
928.65  0.0226
928.66  0.0234
928.67  0.0242
928.68  0.0250
928.69  0.0258
928.70  0.0266
928.71  0.0274
928.72  0.0283
928.73  0.0291
928.74  0.0299
928.75  0.0309
928.76  0.0319
928.77  0.0330
928.78  0.0340
928.79  0.0351
928.80  0.0361
928.81  0.0371
928.82  0.0382
928.83  0.0392
928.84  0.0402
928.85  0.0416
928.86  0.0429
928.87  0.0442
928.88  0.0455
928.89  0.0468
928.90  0.0481
928.91  0.0495
928.92  0.0508
928.93  0.0521
928.94  0.0534
928.95  0.0550
928.96  0.0567
928.97  0.0583
928.98  0.0600
928.99  0.0622
929.00  0.0639
929.01  0.0656
929.02  0.0673
929.03  0.0689
929.04  0.0706
929.05  0.0727
929.06  0.0747
929.07  0.0767
929.08  0.0788
929.09  0.0808
929.10  0.0829
929.11  0.0849
929.12  0.0870
929.13  0.0890
929.14  0.0911
929.15  0.0936
929.16  0.0960
929.17  0.0985
929.18  0.1009
929.19  0.1034
929.20  0.1059
929.21  0.1083
929.22  0.1108
929.23  0.1133
929.24  0.1158
929.25  0.1187
929.26  0.1216
929.27  0.1245
929.28  0.1274
929.29  0.1303
929.30  0.1333
929.31  0.1362
929.32  0.1391
929.33  0.1421
929.34  0.1450
929.35  0.1484
929.36  0.1518
929.37  0.1551
929.38  0.1585
929.39  0.1619
929.40  0.1653
929.41  0.1687
929.42  0.1722
929.43  0.1756
929.44  0.1790
929.45  0.1828
929.46  0.1867
929.47  0.1905
929.48  0.1944
929.49  0.1982
929.50  0.2021
929.51  0.2060
929.52  0.2099
929.53  0.2138
929.54  0.2177
929.55  0.2220
929.56  0.2263
929.57  0.2306
929.58  0.2349
929.59  0.2392
929.60  0.2436
929.61  0.2480
929.62  0.2524
929.63  0.2567
929.64  0.2611
929.65  0.2658
929.66  0.2705
929.67  0.2752
929.68  0.2799
929.69  0.2846
929.70  0.2895
929.71  0.2943
929.72  0.2991
929.73  0.3039
929.74  0.3088
929.75  0.3138
929.76  0.3189
929.77  0.3239
929.78  0.3290
929.79  0.3340
929.80  0.3392
929.81  0.3444
929.82  0.3496
929.83  0.3548
929.84  0.3600
929.85  0.3654
929.86  0.3707
929.87  0.3760
929.88  0.3813
929.89  0.3867
929.90  0.3922
929.91  0.3977
929.92  0.4032
929.93  0.4087
929.94  0.4142
929.95  0.4197
929.96  0.4252
929.97  0.4307
929.98  0.4362
929.99  0.4416
930.00  0.4474
930.01  0.4531
930.02  0.4588
930.03  0.4645
930.04  0.4702
930.05  0.4758
930.06  0.4813
930.07  0.4869
930.08  0.4924
930.09  0.4979
930.10  0.5037
930.11  0.5096
930.12  0.5154
930.13  0.5212
930.14  0.5270
930.15  0.5325
930.16  0.5379
930.17  0.5434
930.18  0.5489
930.19  0.5544
930.20  0.5602
930.21  0.5660
930.22  0.5717
930.23  0.5775
930.24  0.5839
930.25  0.5893
930.26  0.5946
930.27  0.5999
930.28  0.6053
930.29  0.6106
930.30  0.6163
930.31  0.6219
930.32  0.6276
930.33  0.6333
930.34  0.6390
930.35  0.6440
930.36  0.6491
930.37  0.6541
930.38  0.6592
930.39  0.6642
930.40  0.6697
930.41  0.6751
930.42  0.6805
930.43  0.6860
930.44  0.6914
930.45  0.6961
930.46  0.7008
930.47  0.7055
930.48  0.7101
930.49  0.7148
930.50  0.7199
930.51  0.7250
930.52  0.7301
930.53  0.7352
930.54  0.7403
930.55  0.7445
930.56  0.7488
930.57  0.7530
930.58  0.7573
930.59  0.7615
930.60  0.7662
930.61  0.7709
930.62  0.7756
930.63  0.7802
930.64  0.7849
930.65  0.7887
930.66  0.7925
930.67  0.7962
930.68  0.8000
930.69  0.8038
930.70  0.8080
930.71  0.8122
930.72  0.8164
930.73  0.8206
930.74  0.8247
930.75  0.8280
930.76  0.8313
930.77  0.8346
930.78  0.8379
930.79  0.8412
930.80  0.8449
930.81  0.8486
930.82  0.8522
930.83  0.8559
930.84  0.8596
930.85  0.8624
930.86  0.8652
930.87  0.8680
930.88  0.8709
930.89  0.8737
930.90  0.8768
930.91  0.8800
930.92  0.8831
930.93  0.8863
930.94  0.8894
930.95  0.8918
930.96  0.8942
930.97  0.8966
930.98  0.8989
930.99  0.9013
931.00  0.9039
931.01  0.9066
931.02  0.9092
931.03  0.9118
931.04  0.9144
931.05  0.9164
931.06  0.9184
931.07  0.9204
931.08  0.9224
931.09  0.9244
931.10  0.9265
931.11  0.9286
931.12  0.9307
931.13  0.9328
931.14  0.9349
931.15  0.9366
931.16  0.9383
931.17  0.9399
931.18  0.9416
931.19  0.9432
931.20  0.9449
931.21  0.9465
931.22  0.9482
931.23  0.9498
931.24  0.9515
931.25  0.9529
931.26  0.9543
931.27  0.9556
931.28  0.9570
931.29  0.9584
931.30  0.9596
931.31  0.9609
931.32  0.9621
931.33  0.9633
931.34  0.9645
931.35  0.9657
931.36  0.9669
931.37  0.9680
931.38  0.9692
931.39  0.9703
931.40  0.9712
931.41  0.9720
931.42  0.9729
931.43  0.9737
931.44  0.9746
931.45  0.9755
931.46  0.9765
931.47  0.9775
931.48  0.9785
931.49  0.9801
931.50  0.9807
931.51  0.9812
931.52  0.9817
931.53  0.9823
931.54  0.9828
931.55  0.9837
931.56  0.9846
931.57  0.9855
931.58  0.9864
931.59  0.9873
931.60  0.9875
931.61  0.9878
931.62  0.9881
931.63  0.9883
931.64  0.9886
931.65  0.9894
931.66  0.9901
931.67  0.9909
931.68  0.9917
931.69  0.9925
931.70  0.9925
931.71  0.9926
931.72  0.9926
931.73  0.9926
931.74  0.9927
931.75  0.9934
931.76  0.9941
931.77  0.9947
931.78  0.9954
931.79  0.9961
931.80  0.9960
931.81  0.9958
931.82  0.9957
931.83  0.9956
931.84  0.9954
931.85  0.9960
931.86  0.9966
931.87  0.9972
931.88  0.9978
931.89  0.9984
931.90  0.9982
931.91  0.9979
931.92  0.9976
931.93  0.9973
931.94  0.9971
931.95  0.9976
931.96  0.9981
931.97  0.9986
931.98  0.9991
931.99  0.9997
932.00  0.9993
932.01  0.9989
932.02  0.9986
932.03  0.9982
932.04  0.9979
932.05  0.9983
932.06  0.9987
932.07  0.9991
932.08  0.9996
932.09  1.0000
932.10  0.9996
932.11  0.9992
932.12  0.9988
932.13  0.9984
932.14  0.9980
932.15  0.9983
932.16  0.9986
932.17  0.9990
932.18  0.9993
932.19  0.9996
932.20  0.9992
932.21  0.9988
932.22  0.9984
932.23  0.9980
932.24  0.9976
932.25  0.9978
932.26  0.9981
932.27  0.9983
932.28  0.9986
932.29  0.9988
932.30  0.9984
932.31  0.9981
932.32  0.9977
932.33  0.9973
932.34  0.9969
932.35  0.9971
932.36  0.9972
932.37  0.9973
932.38  0.9975
932.39  0.9976
932.40  0.9973
932.41  0.9970
932.42  0.9967
932.43  0.9964
932.44  0.9961
932.45  0.9961
932.46  0.9961
932.47  0.9962
932.48  0.9962
932.49  0.9962
932.50  0.9960
932.51  0.9958
932.52  0.9956
932.53  0.9954
932.54  0.9951
932.55  0.9951
932.56  0.9950
932.57  0.9949
932.58  0.9949
932.59  0.9948
932.60  0.9947
932.61  0.9946
932.62  0.9944
932.63  0.9943
932.64  0.9942
932.65  0.9940
932.66  0.9938
932.67  0.9937
932.68  0.9935
932.69  0.9933
932.70  0.9933
932.71  0.9933
932.72  0.9933
932.73  0.9932
932.74  0.9938
932.75  0.9936
932.76  0.9933
932.77  0.9931
932.78  0.9929
932.79  0.9926
932.80  0.9927
932.81  0.9928
932.82  0.9929
932.83  0.9930
932.84  0.9931
932.85  0.9928
932.86  0.9925
932.87  0.9921
932.88  0.9918
932.89  0.9915
932.90  0.9917
932.91  0.9919
932.92  0.9920
932.93  0.9922
932.94  0.9924
932.95  0.9920
932.96  0.9916
932.97  0.9912
932.98  0.9908
932.99  0.9904
933.00  0.9906
933.01  0.9909
933.02  0.9911
933.03  0.9914
933.04  0.9916
933.05  0.9911
933.06  0.9907
933.07  0.9902
933.08  0.9898
933.09  0.9893
933.10  0.9896
933.11  0.9898
933.12  0.9901
933.13  0.9904
933.14  0.9907
933.15  0.9902
933.16  0.9897
933.17  0.9892
933.18  0.9887
933.19  0.9882
933.20  0.9884
933.21  0.9887
933.22  0.9890
933.23  0.9893
933.24  0.9896
933.25  0.9890
933.26  0.9885
933.27  0.9880
933.28  0.9875
933.29  0.9869
933.30  0.9872
933.31  0.9875
933.32  0.9877
933.33  0.9880
933.34  0.9882
933.35  0.9877
933.36  0.9872
933.37  0.9867
933.38  0.9862
933.39  0.9857
933.40  0.9859
933.41  0.9861
933.42  0.9863
933.43  0.9865
933.44  0.9867
933.45  0.9863
933.46  0.9858
933.47  0.9853
933.48  0.9848
933.49  0.9843
933.50  0.9845
933.51  0.9846
933.52  0.9848
933.53  0.9850
933.54  0.9851
933.55  0.9847
933.56  0.9843
933.57  0.9838
933.58  0.9834
933.59  0.9830
933.60  0.9831
933.61  0.9832
933.62  0.9832
933.63  0.9833
933.64  0.9834
933.65  0.9831
933.66  0.9827
933.67  0.9824
933.68  0.9821
933.69  0.9817
933.70  0.9817
933.71  0.9817
933.72  0.9817
933.73  0.9817
933.74  0.9817
933.75  0.9809
933.76  0.9807
933.77  0.9804
933.78  0.9802
933.79  0.9800
933.80  0.9799
933.81  0.9799
933.82  0.9798
933.83  0.9797
933.84  0.9797
933.85  0.9795
933.86  0.9794
933.87  0.9793
933.88  0.9792
933.89  0.9791
933.90  0.9789
933.91  0.9787
933.92  0.9785
933.93  0.9784
933.94  0.9782
933.95  0.9782
933.96  0.9781
933.97  0.9781
933.98  0.9781
933.99  0.9787
934.00  0.9784
934.01  0.9782
934.02  0.9780
934.03  0.9777
934.04  0.9775
934.05  0.9776
934.06  0.9777
934.07  0.9778
934.08  0.9779
934.09  0.9780
934.10  0.9776
934.11  0.9773
934.12  0.9770
934.13  0.9767
934.14  0.9763
934.15  0.9765
934.16  0.9767
934.17  0.9769
934.18  0.9771
934.19  0.9772
934.20  0.9768
934.21  0.9764
934.22  0.9760
934.23  0.9757
934.24  0.9753
934.25  0.9755
934.26  0.9757
934.27  0.9760
934.28  0.9762
934.29  0.9764
934.30  0.9760
934.31  0.9755
934.32  0.9751
934.33  0.9746
934.34  0.9742
934.35  0.9744
934.36  0.9747
934.37  0.9750
934.38  0.9752
934.39  0.9755
934.40  0.9750
934.41  0.9745
934.42  0.9740
934.43  0.9735
934.44  0.9730
934.45  0.9733
934.46  0.9736
934.47  0.9738
934.48  0.9741
934.49  0.9744
934.50  0.9739
934.51  0.9734
934.52  0.9728
934.53  0.9723
934.54  0.9718
934.55  0.9721
934.56  0.9723
934.57  0.9726
934.58  0.9728
934.59  0.9731
934.60  0.9726
934.61  0.9721
934.62  0.9716
934.63  0.9710
934.64  0.9705
934.65  0.9708
934.66  0.9710
934.67  0.9712
934.68  0.9714
934.69  0.9716
934.70  0.9711
934.71  0.9706
934.72  0.9702
934.73  0.9697
934.74  0.9692
934.75  0.9694
934.76  0.9695
934.77  0.9697
934.78  0.9698
934.79  0.9700
934.80  0.9696
934.81  0.9691
934.82  0.9687
934.83  0.9683
934.84  0.9679
934.85  0.9680
934.86  0.9680
934.87  0.9681
934.88  0.9682
934.89  0.9683
934.90  0.9679
934.91  0.9676
934.92  0.9673
934.93  0.9669
934.94  0.9666
934.95  0.9666
934.96  0.9666
934.97  0.9666
934.98  0.9666
934.99  0.9666
935.00  0.9658
935.01  0.9656
935.02  0.9653
935.03  0.9651
935.04  0.9649
935.05  0.9648
935.06  0.9648
935.07  0.9647
935.08  0.9646
935.09  0.9646
935.10  0.9644
935.11  0.9643
935.12  0.9642
935.13  0.9641
935.14  0.9640
935.15  0.9638
935.16  0.9636
935.17  0.9634
935.18  0.9633
935.19  0.9631
935.20  0.9631
935.21  0.9631
935.22  0.9630
935.23  0.9630
935.24  0.9636
935.25  0.9633
935.26  0.9631
935.27  0.9629
935.28  0.9626
935.29  0.9624
935.30  0.9625
935.31  0.9626
935.32  0.9627
935.33  0.9628
935.34  0.9629
935.35  0.9625
935.36  0.9622
935.37  0.9619
935.38  0.9616
935.39  0.9613
935.40  0.9614
935.41  0.9616
935.42  0.9618
935.43  0.9620
935.44  0.9621
935.45  0.9617
935.46  0.9613
935.47  0.9610
935.48  0.9606
935.49  0.9602
935.50  0.9604
935.51  0.9606
935.52  0.9609
935.53  0.9611
935.54  0.9613
935.55  0.9609
935.56  0.9604
935.57  0.9600
935.58  0.9595
935.59  0.9591
935.60  0.9593
935.61  0.9596
935.62  0.9599
935.63  0.9601
935.64  0.9604
935.65  0.9599
935.66  0.9594
935.67  0.9589
935.68  0.9584
935.69  0.9579
935.70  0.9582
935.71  0.9585
935.72  0.9587
935.73  0.9590
935.74  0.9593
935.75  0.9588
935.76  0.9583
935.77  0.9578
935.78  0.9572
935.79  0.9567
935.80  0.9570
935.81  0.9572
935.82  0.9575
935.83  0.9577
935.84  0.9580
935.85  0.9575
935.86  0.9570
935.87  0.9565
935.88  0.9560
935.89  0.9555
935.90  0.9557
935.91  0.9559
935.92  0.9561
935.93  0.9563
935.94  0.9565
935.95  0.9560
935.96  0.9556
935.97  0.9551
935.98  0.9546
935.99  0.9541
936.00  0.9543
936.01  0.9544
936.02  0.9546
936.03  0.9547
936.04  0.9549
936.05  0.9545
936.06  0.9541
936.07  0.9537
936.08  0.9532
936.09  0.9528
936.10  0.9529
936.11  0.9530
936.12  0.9531
936.13  0.9531
936.14  0.9532
936.15  0.9529
936.16  0.9525
936.17  0.9522
936.18  0.9519
936.19  0.9515
936.20  0.9515
936.21  0.9515
936.22  0.9515
936.23  0.9515
936.24  0.9515
936.25  0.9507
936.26  0.9505
936.27  0.9503
936.28  0.9501
936.29  0.9499
936.30  0.9498
936.31  0.9497
936.32  0.9497
936.33  0.9496
936.34  0.9495
936.35  0.9494
936.36  0.9493
936.37  0.9491
936.38  0.9490
936.39  0.9489
936.40  0.9487
936.41  0.9486
936.42  0.9484
936.43  0.9482
936.44  0.9481
936.45  0.9480
936.46  0.9480
936.47  0.9480
936.48  0.9480
936.49  0.9485
936.50  0.9483
936.51  0.9480
936.52  0.9478
936.53  0.9476
936.54  0.9473
936.55  0.9474
936.56  0.9475
936.57  0.9476
936.58  0.9477
936.59  0.9478
936.60  0.9475
936.61  0.9472
936.62  0.9468
936.63  0.9465
936.64  0.9462
936.65  0.9464
936.66  0.9466
936.67  0.9467
936.68  0.9469
936.69  0.9471
936.70  0.9467
936.71  0.9463
936.72  0.9459
936.73  0.9455
936.74  0.9451
936.75  0.9454
936.76  0.9456
936.77  0.9458
936.78  0.9460
936.79  0.9463
936.80  0.9458
936.81  0.9454
936.82  0.9449
936.83  0.9445
936.84  0.9440
936.85  0.9443
936.86  0.9446
936.87  0.9448
936.88  0.9451
936.89  0.9453
936.90  0.9448
936.91  0.9444
936.92  0.9439
936.93  0.9434
936.94  0.9429
936.95  0.9432
936.96  0.9434
936.97  0.9437
936.98  0.9440
936.99  0.9442
937.00  0.9437
937.01  0.9432
937.02  0.9427
937.03  0.9422
937.04  0.9417
937.05  0.9420
937.06  0.9422
937.07  0.9424
937.08  0.9427
937.09  0.9429
937.10  0.9424
937.11  0.9419
937.12  0.9414
937.13  0.9409
937.14  0.9404
937.15  0.9406
937.16  0.9408
937.17  0.9410
937.18  0.9412
937.19  0.9414
937.20  0.9410
937.21  0.9405
937.22  0.9401
937.23  0.9396
937.24  0.9391
937.25  0.9393
937.26  0.9394
937.27  0.9396
937.28  0.9397
937.29  0.9398
937.30  0.9394
937.31  0.9390
937.32  0.9386
937.33  0.9382
937.34  0.9378
937.35  0.9379
937.36  0.9380
937.37  0.9380
937.38  0.9381
937.39  0.9382
937.40  0.9379
937.41  0.9375
937.42  0.9372
937.43  0.9369
937.44  0.9365
937.45  0.9365
937.46  0.9365
937.47  0.9365
937.48  0.9365
937.49  0.9365
937.50  0.9357
937.51  0.9355
937.52  0.9353
937.53  0.9351
937.54  0.9349
937.55  0.9348
937.56  0.9347
937.57  0.9347
937.58  0.9346
937.59  0.9345
937.60  0.9344
937.61  0.9343
937.62  0.9342
937.63  0.9340
937.64  0.9339
937.65  0.9337
937.66  0.9336
937.67  0.9334
937.68  0.9332
937.69  0.9331
937.70  0.9330
937.71  0.9330
937.72  0.9330
937.73  0.9330
937.74  0.9335
937.75  0.9333
937.76  0.9330
937.77  0.9328
937.78  0.9326
937.79  0.9323
937.80  0.9324
937.81  0.9325
937.82  0.9326
937.83  0.9327
937.84  0.9328
937.85  0.9325
937.86  0.9322
937.87  0.9318
937.88  0.9315
937.89  0.9312
937.90  0.9314
937.91  0.9316
937.92  0.9317
937.93  0.9319
937.94  0.9320
937.95  0.9317
937.96  0.9313
937.97  0.9309
937.98  0.9305
937.99  0.9301
938.00  0.9304
938.01  0.9306
938.02  0.9308
938.03  0.9310
938.04  0.9312
938.05  0.9308
938.06  0.9304
938.07  0.9299
938.08  0.9295
938.09  0.9291
938.10  0.9293
938.11  0.9296
938.12  0.9298
938.13  0.9301
938.14  0.9303
938.15  0.9298
938.16  0.9294
938.17  0.9289
938.18  0.9284
938.19  0.9279
938.20  0.9282
938.21  0.9284
938.22  0.9287
938.23  0.9289
938.24  0.9292
938.25  0.9287
938.26  0.9282
938.27  0.9277
938.28  0.9272
938.29  0.9267
938.30  0.9270
938.31  0.9272
938.32  0.9274
938.33  0.9277
938.34  0.9279
938.35  0.9274
938.36  0.9269
938.37  0.9264
938.38  0.9260
938.39  0.9255
938.40  0.9257
938.41  0.9259
938.42  0.9261
938.43  0.9263
938.44  0.9264
938.45  0.9260
938.46  0.9255
938.47  0.9251
938.48  0.9246
938.49  0.9242
938.50  0.9243
938.51  0.9244
938.52  0.9246
938.53  0.9247
938.54  0.9249
938.55  0.9245
938.56  0.9241
938.57  0.9237
938.58  0.9232
938.59  0.9228
938.60  0.9229
938.61  0.9230
938.62  0.9231
938.63  0.9231
938.64  0.9232
938.65  0.9229
938.66  0.9226
938.67  0.9222
938.68  0.9219
938.69  0.9216
938.70  0.9216
938.71  0.9216
938.72  0.9216
938.73  0.9215
938.74  0.9215
938.75  0.9208
938.76  0.9205
938.77  0.9203
938.78  0.9201
938.79  0.9199
938.80  0.9198
938.81  0.9198
938.82  0.9197
938.83  0.9196
938.84  0.9196
938.85  0.9194
938.86  0.9193
938.87  0.9192
938.88  0.9191
938.89  0.9190
938.90  0.9188
938.91  0.9186
938.92  0.9185
938.93  0.9183
938.94  0.9181
938.95  0.9181
938.96  0.9181
938.97  0.9180
938.98  0.9180
938.99  0.9185
939.00  0.9183
939.01  0.9181
939.02  0.9179
939.03  0.9176
939.04  0.9174
939.05  0.9175
939.06  0.9176
939.07  0.9177
939.08  0.9177
939.09  0.9178
939.10  0.9175
939.11  0.9172
939.12  0.9169
939.13  0.9166
939.14  0.9163
939.15  0.9164
939.16  0.9166
939.17  0.9168
939.18  0.9169
939.19  0.9171
939.20  0.9167
939.21  0.9163
939.22  0.9160
939.23  0.9156
939.24  0.9152
939.25  0.9154
939.26  0.9156
939.27  0.9158
939.28  0.9161
939.29  0.9163
939.30  0.9158
939.31  0.9154
939.32  0.9150
939.33  0.9145
939.34  0.9141
939.35  0.9144
939.36  0.9146
939.37  0.9148
939.38  0.9151
939.39  0.9153
939.40  0.9149
939.41  0.9144
939.42  0.9139
939.43  0.9135
939.44  0.9130
939.45  0.9132
939.46  0.9135
939.47  0.9137
939.48  0.9140
939.49  0.9142
939.50  0.9137
939.51  0.9133
939.52  0.9128
939.53  0.9123
939.54  0.9118
939.55  0.9120
939.56  0.9123
939.57  0.9125
939.58  0.9127
939.59  0.9130
939.60  0.9125
939.61  0.9120
939.62  0.9115
939.63  0.9110
939.64  0.9105
939.65  0.9107
939.66  0.9109
939.67  0.9111
939.68  0.9113
939.69  0.9115
939.70  0.9110
939.71  0.9106
939.72  0.9101
939.73  0.9097
939.74  0.9092
939.75  0.9094
939.76  0.9095
939.77  0.9096
939.78  0.9098
939.79  0.9099
939.80  0.9095
939.81  0.9091
939.82  0.9087
939.83  0.9083
939.84  0.9079
939.85  0.9080
939.86  0.9081
939.87  0.9081
939.88  0.9082
939.89  0.9083
939.90  0.9079
939.91  0.9076
939.92  0.9073
939.93  0.9070
939.94  0.9067
939.95  0.9067
939.96  0.9066
939.97  0.9066
939.98  0.9066
939.99  0.9066
940.00  0.9059
940.01  0.9057
940.02  0.9055
940.03  0.9053
940.04  0.9051
940.05  0.9051
940.06  0.9050
940.07  0.9050
940.08  0.9049
940.09  0.9049
940.10  0.9048
940.11  0.9047
940.12  0.9046
940.13  0.9045
940.14  0.9044
940.15  0.9042
940.16  0.9041
940.17  0.9039
940.18  0.9038
940.19  0.9037
940.20  0.9036
940.21  0.9036
940.22  0.9036
940.23  0.9036
940.24  0.9042
940.25  0.9040
940.26  0.9038
940.27  0.9036
940.28  0.9033
940.29  0.9031
940.30  0.9032
940.31  0.9034
940.32  0.9035
940.33  0.9036
940.34  0.9037
940.35  0.9034
940.36  0.9031
940.37  0.9028
940.38  0.9025
940.39  0.9022
940.40  0.9024
940.41  0.9026
940.42  0.9028
940.43  0.9030
940.44  0.9031
940.45  0.9028
940.46  0.9024
940.47  0.9021
940.48  0.9017
940.49  0.9014
940.50  0.9016
940.51  0.9019
940.52  0.9021
940.53  0.9023
940.54  0.9026
940.55  0.9022
940.56  0.9017
940.57  0.9013
940.58  0.9009
940.59  0.9005
940.60  0.9008
940.61  0.9011
940.62  0.9013
940.63  0.9016
940.64  0.9018
940.65  0.9014
940.66  0.9010
940.67  0.9005
940.68  0.9001
940.69  0.8996
940.70  0.8999
940.71  0.9002
940.72  0.9004
940.73  0.9007
940.74  0.9010
940.75  0.9005
940.76  0.9000
940.77  0.8996
940.78  0.8991
940.79  0.8987
940.80  0.8989
940.81  0.8992
940.82  0.8994
940.83  0.8997
940.84  0.8999
940.85  0.8995
940.86  0.8990
940.87  0.8985
940.88  0.8981
940.89  0.8976
940.90  0.8978
940.91  0.8981
940.92  0.8983
940.93  0.8985
