# Provided by ESA in 10/2012
# Important Notes:
# The data contained here correspond to the OLCI Spectral Model CDR derived in 2011.
# The data have been calculated for the camera 4, pointing nadir.
997.70  0.0007
997.71  0.0007
997.72  0.0008
997.73  0.0008
997.74  0.0008
997.75  0.0009
997.76  0.0009
997.77  0.0009
997.78  0.0010
997.79  0.0010
997.80  0.0011
997.81  0.0011
997.82  0.0012
997.83  0.0012
997.84  0.0013
997.85  0.0014
997.86  0.0014
997.87  0.0015
997.88  0.0015
997.89  0.0016
997.90  0.0016
997.91  0.0017
997.92  0.0018
997.93  0.0019
997.94  0.0020
997.95  0.0021
997.96  0.0022
997.97  0.0022
997.98  0.0023
997.99  0.0024
998.00  0.0025
998.01  0.0026
998.02  0.0028
998.03  0.0029
998.04  0.0030
998.05  0.0031
998.06  0.0033
998.07  0.0034
998.08  0.0035
998.09  0.0036
998.10  0.0037
998.11  0.0039
998.12  0.0041
998.13  0.0043
998.14  0.0045
998.15  0.0046
998.16  0.0048
998.17  0.0050
998.18  0.0052
998.19  0.0054
998.20  0.0055
998.21  0.0058
998.22  0.0060
998.23  0.0063
998.24  0.0065
998.25  0.0068
998.26  0.0070
998.27  0.0073
998.28  0.0075
998.29  0.0078
998.30  0.0080
998.31  0.0084
998.32  0.0087
998.33  0.0091
998.34  0.0094
998.35  0.0098
998.36  0.0101
998.37  0.0105
998.38  0.0108
998.39  0.0112
998.40  0.0115
998.41  0.0120
998.42  0.0125
998.43  0.0129
998.44  0.0134
998.45  0.0139
998.46  0.0144
998.47  0.0148
998.48  0.0153
998.49  0.0158
998.50  0.0162
998.51  0.0169
998.52  0.0175
998.53  0.0181
998.54  0.0188
998.55  0.0194
998.56  0.0200
998.57  0.0207
998.58  0.0213
998.59  0.0219
998.60  0.0225
998.61  0.0234
998.62  0.0242
998.63  0.0250
998.64  0.0259
998.65  0.0267
998.66  0.0275
998.67  0.0283
998.68  0.0292
998.69  0.0300
998.70  0.0308
998.71  0.0319
998.72  0.0330
998.73  0.0340
998.74  0.0351
998.75  0.0362
998.76  0.0372
998.77  0.0383
998.78  0.0394
998.79  0.0404
998.80  0.0415
998.81  0.0428
998.82  0.0442
998.83  0.0455
998.84  0.0469
998.85  0.0483
998.86  0.0496
998.87  0.0510
998.88  0.0523
998.89  0.0537
998.90  0.0550
998.91  0.0567
998.92  0.0584
998.93  0.0600
998.94  0.0617
998.95  0.0641
998.96  0.0658
998.97  0.0675
998.98  0.0692
998.99  0.0709
999.00  0.0726
999.01  0.0747
999.02  0.0768
999.03  0.0789
999.04  0.0810
999.05  0.0831
999.06  0.0852
999.07  0.0873
999.08  0.0894
999.09  0.0915
999.10  0.0936
999.11  0.0961
999.12  0.0987
999.13  0.1012
999.14  0.1037
999.15  0.1062
999.16  0.1087
999.17  0.1113
999.18  0.1138
999.19  0.1163
999.20  0.1189
999.21  0.1219
999.22  0.1248
999.23  0.1278
999.24  0.1308
999.25  0.1337
999.26  0.1367
999.27  0.1397
999.28  0.1427
999.29  0.1457
999.30  0.1487
999.31  0.1522
999.32  0.1556
999.33  0.1591
999.34  0.1625
999.35  0.1660
999.36  0.1694
999.37  0.1729
999.38  0.1764
999.39  0.1799
999.40  0.1834
999.41  0.1873
999.42  0.1912
999.43  0.1951
999.44  0.1991
999.45  0.2030
999.46  0.2070
999.47  0.2109
999.48  0.2149
999.49  0.2189
999.50  0.2229
999.51  0.2272
999.52  0.2316
999.53  0.2360
999.54  0.2403
999.55  0.2447
999.56  0.2492
999.57  0.2536
999.58  0.2581
999.59  0.2625
999.60  0.2670
999.61  0.2718
999.62  0.2765
999.63  0.2813
999.64  0.2861
999.65  0.2909
999.66  0.2958
999.67  0.3007
999.68  0.3056
999.69  0.3105
999.70  0.3153
999.71  0.3205
999.72  0.3256
999.73  0.3307
999.74  0.3359
999.75  0.3410
999.76  0.3463
999.77  0.3515
999.78  0.3568
999.79  0.3621
999.80  0.3673
999.81  0.3727
999.82  0.3781
999.83  0.3835
999.84  0.3889
999.85  0.3943
999.86  0.3999
999.87  0.4054
999.88  0.4110
999.89  0.4166
999.90  0.4221
999.91  0.4277
999.92  0.4333
999.93  0.4388
999.94  0.4443
999.95  0.4499
999.96  0.4557
999.97  0.4614
999.98  0.4672
999.99  0.4730
1000.00 0.4787
1000.01 0.4843
1000.02 0.4899
1000.03 0.4955
1000.04 0.5011
1000.05 0.5067
1000.06 0.5125
1000.07 0.5184
1000.08 0.5243
1000.09 0.5301
1000.10 0.5360
1000.11 0.5415
1000.12 0.5470
1000.13 0.5525
1000.14 0.5580
1000.15 0.5635
1000.16 0.5693
1000.17 0.5752
1000.18 0.5810
1000.19 0.5874
1000.20 0.5933
1000.21 0.5986
1000.22 0.6040
1000.23 0.6093
1000.24 0.6147
1000.25 0.6200
1000.26 0.6257
1000.27 0.6314
1000.28 0.6371
1000.29 0.6428
1000.30 0.6485
1000.31 0.6536
1000.32 0.6586
1000.33 0.6637
1000.34 0.6687
1000.35 0.6738
1000.36 0.6792
1000.37 0.6847
1000.38 0.6901
1000.39 0.6955
1000.40 0.7010
1000.41 0.7057
1000.42 0.7103
1000.43 0.7150
1000.44 0.7197
1000.45 0.7243
1000.46 0.7294
1000.47 0.7345
1000.48 0.7396
1000.49 0.7447
1000.50 0.7498
1000.51 0.7540
1000.52 0.7582
1000.53 0.7624
1000.54 0.7667
1000.55 0.7709
1000.56 0.7755
1000.57 0.7802
1000.58 0.7848
1000.59 0.7895
1000.60 0.7942
1000.61 0.7979
1000.62 0.8016
1000.63 0.8054
1000.64 0.8091
1000.65 0.8128
1000.66 0.8170
1000.67 0.8211
1000.68 0.8253
1000.69 0.8294
1000.70 0.8336
1000.71 0.8369
1000.72 0.8401
1000.73 0.8433
1000.74 0.8466
1000.75 0.8498
1000.76 0.8534
1000.77 0.8570
1000.78 0.8606
1000.79 0.8643
1000.80 0.8680
1000.81 0.8707
1000.82 0.8735
1000.83 0.8762
1000.84 0.8790
1000.85 0.8817
1000.86 0.8848
1000.87 0.8879
1000.88 0.8909
1000.89 0.8940
1000.90 0.8972
1000.91 0.8995
1000.92 0.9018
1000.93 0.9041
1000.94 0.9064
1000.95 0.9087
1000.96 0.9113
1000.97 0.9138
1000.98 0.9163
1000.99 0.9189
1001.00 0.9215
1001.01 0.9235
1001.02 0.9254
1001.03 0.9273
1001.04 0.9292
1001.05 0.9311
1001.06 0.9331
1001.07 0.9351
1001.08 0.9371
1001.09 0.9392
1001.10 0.9414
1001.11 0.9430
1001.12 0.9445
1001.13 0.9461
1001.14 0.9476
1001.15 0.9492
1001.16 0.9508
1001.17 0.9523
1001.18 0.9539
1001.19 0.9554
1001.20 0.9572
1001.21 0.9585
1001.22 0.9598
1001.23 0.9611
1001.24 0.9623
1001.25 0.9636
1001.26 0.9647
1001.27 0.9659
1001.28 0.9670
1001.29 0.9681
1001.30 0.9695
1001.31 0.9706
1001.32 0.9716
1001.33 0.9727
1001.34 0.9737
1001.35 0.9748
1001.36 0.9755
1001.37 0.9763
1001.38 0.9770
1001.39 0.9777
1001.40 0.9788
1001.41 0.9797
1001.42 0.9806
1001.43 0.9814
1001.44 0.9830
1001.45 0.9839
1001.46 0.9843
1001.47 0.9847
1001.48 0.9852
1001.49 0.9856
1001.50 0.9864
1001.51 0.9872
1001.52 0.9879
1001.53 0.9887
1001.54 0.9895
1001.55 0.9903
1001.56 0.9904
1001.57 0.9906
1001.58 0.9907
1001.59 0.9909
1001.60 0.9914
1001.61 0.9921
1001.62 0.9928
1001.63 0.9935
1001.64 0.9941
1001.65 0.9948
1001.66 0.9947
1001.67 0.9947
1001.68 0.9946
1001.69 0.9945
1001.70 0.9949
1001.71 0.9954
1001.72 0.9960
1001.73 0.9966
1001.74 0.9972
1001.75 0.9978
1001.76 0.9975
1001.77 0.9973
1001.78 0.9970
1001.79 0.9968
1001.80 0.9969
1001.81 0.9974
1001.82 0.9979
1001.83 0.9984
1001.84 0.9989
1001.85 0.9994
1001.86 0.9990
1001.87 0.9987
1001.88 0.9983
1001.89 0.9979
1001.90 0.9979
1001.91 0.9983
1001.92 0.9987
1001.93 0.9991
1001.94 0.9995
1001.95 1.0000
1001.96 0.9995
1001.97 0.9990
1001.98 0.9986
1001.99 0.9981
1002.00 0.9980
1002.01 0.9983
1002.02 0.9986
1002.03 0.9989
1002.04 0.9993
1002.05 0.9997
1002.06 0.9991
1002.07 0.9986
1002.08 0.9981
1002.09 0.9976
1002.10 0.9974
1002.11 0.9976
1002.12 0.9978
1002.13 0.9981
1002.14 0.9983
1002.15 0.9986
1002.16 0.9981
1002.17 0.9976
1002.18 0.9970
1002.19 0.9965
1002.20 0.9962
1002.21 0.9964
1002.22 0.9965
1002.23 0.9966
1002.24 0.9967
1002.25 0.9970
1002.26 0.9965
1002.27 0.9960
1002.28 0.9955
1002.29 0.9951
1002.30 0.9947
1002.31 0.9947
1002.32 0.9947
1002.33 0.9948
1002.34 0.9948
1002.35 0.9950
1002.36 0.9946
1002.37 0.9941
1002.38 0.9937
1002.39 0.9933
1002.40 0.9929
1002.41 0.9928
1002.42 0.9927
1002.43 0.9926
1002.44 0.9925
1002.45 0.9927
1002.46 0.9924
1002.47 0.9920
1002.48 0.9917
1002.49 0.9914
1002.50 0.9909
1002.51 0.9907
1002.52 0.9905
1002.53 0.9903
1002.54 0.9901
1002.55 0.9902
1002.56 0.9900
1002.57 0.9897
1002.58 0.9895
1002.59 0.9893
1002.60 0.9887
1002.61 0.9884
1002.62 0.9881
1002.63 0.9879
1002.64 0.9876
1002.65 0.9876
1002.66 0.9875
1002.67 0.9873
1002.68 0.9872
1002.69 0.9876
1002.70 0.9871
1002.71 0.9867
1002.72 0.9864
1002.73 0.9860
1002.74 0.9857
1002.75 0.9856
1002.76 0.9856
1002.77 0.9856
1002.78 0.9856
1002.79 0.9856
1002.80 0.9850
1002.81 0.9845
1002.82 0.9841
1002.83 0.9836
1002.84 0.9832
1002.85 0.9832
1002.86 0.9832
1002.87 0.9833
1002.88 0.9833
1002.89 0.9834
1002.90 0.9828
1002.91 0.9822
1002.92 0.9817
1002.93 0.9812
1002.94 0.9807
1002.95 0.9806
1002.96 0.9807
1002.97 0.9809
1002.98 0.9810
1002.99 0.9811
1003.00 0.9804
1003.01 0.9798
1003.02 0.9793
1003.03 0.9787
1003.04 0.9781
1003.05 0.9780
1003.06 0.9781
1003.07 0.9783
1003.08 0.9784
1003.09 0.9786
1003.10 0.9779
1003.11 0.9773
1003.12 0.9767
1003.13 0.9761
1003.14 0.9755
1003.15 0.9753
1003.16 0.9754
1003.17 0.9756
1003.18 0.9757
1003.19 0.9759
1003.20 0.9752
1003.21 0.9746
1003.22 0.9739
1003.23 0.9733
1003.24 0.9727
1003.25 0.9724
1003.26 0.9726
1003.27 0.9727
1003.28 0.9728
1003.29 0.9730
1003.30 0.9723
1003.31 0.9717
1003.32 0.9711
1003.33 0.9704
1003.34 0.9698
1003.35 0.9695
1003.36 0.9696
1003.37 0.9697
1003.38 0.9698
1003.39 0.9699
1003.40 0.9693
1003.41 0.9687
1003.42 0.9681
1003.43 0.9675
1003.44 0.9669
1003.45 0.9666
1003.46 0.9666
1003.47 0.9666
1003.48 0.9667
1003.49 0.9667
1003.50 0.9662
1003.51 0.9656
1003.52 0.9651
1003.53 0.9646
1003.54 0.9640
1003.55 0.9636
1003.56 0.9636
1003.57 0.9636
1003.58 0.9635
1003.59 0.9635
1003.60 0.9630
1003.61 0.9626
1003.62 0.9621
1003.63 0.9617
1003.64 0.9612
1003.65 0.9608
1003.66 0.9607
1003.67 0.9605
1003.68 0.9604
1003.69 0.9603
1003.70 0.9599
1003.71 0.9590
1003.72 0.9587
1003.73 0.9584
1003.74 0.9580
1003.75 0.9576
1003.76 0.9574
1003.77 0.9572
1003.78 0.9570
1003.79 0.9568
1003.80 0.9566
1003.81 0.9564
1003.82 0.9561
1003.83 0.9559
1003.84 0.9557
1003.85 0.9551
1003.86 0.9548
1003.87 0.9545
1003.88 0.9543
1003.89 0.9540
1003.90 0.9538
1003.91 0.9537
1003.92 0.9536
1003.93 0.9534
1003.94 0.9539
1003.95 0.9533
1003.96 0.9530
1003.97 0.9526
1003.98 0.9523
1003.99 0.9519
1004.00 0.9519
1004.01 0.9519
1004.02 0.9519
1004.03 0.9518
1004.04 0.9518
1004.05 0.9512
1004.06 0.9508
1004.07 0.9503
1004.08 0.9499
1004.09 0.9495
1004.10 0.9495
1004.11 0.9496
1004.12 0.9497
1004.13 0.9497
1004.14 0.9498
1004.15 0.9491
1004.16 0.9486
1004.17 0.9481
1004.18 0.9476
1004.19 0.9471
1004.20 0.9472
1004.21 0.9474
1004.22 0.9475
1004.23 0.9476
1004.24 0.9477
1004.25 0.9470
1004.26 0.9465
1004.27 0.9459
1004.28 0.9454
1004.29 0.9448
1004.30 0.9449
1004.31 0.9451
1004.32 0.9452
1004.33 0.9454
1004.34 0.9455
1004.35 0.9448
1004.36 0.9442
1004.37 0.9436
1004.38 0.9431
1004.39 0.9425
1004.40 0.9426
1004.41 0.9428
1004.42 0.9429
1004.43 0.9431
1004.44 0.9432
1004.45 0.9425
1004.46 0.9419
1004.47 0.9413
1004.48 0.9407
1004.49 0.9401
1004.50 0.9402
1004.51 0.9403
1004.52 0.9404
1004.53 0.9406
1004.54 0.9407
1004.55 0.9401
1004.56 0.9394
1004.57 0.9388
1004.58 0.9382
1004.59 0.9376
1004.60 0.9377
1004.61 0.9378
1004.62 0.9379
1004.63 0.9380
1004.64 0.9381
1004.65 0.9374
1004.66 0.9369
1004.67 0.9363
1004.68 0.9357
1004.69 0.9351
1004.70 0.9352
1004.71 0.9352
1004.72 0.9352
1004.73 0.9353
1004.74 0.9353
1004.75 0.9348
1004.76 0.9342
1004.77 0.9337
1004.78 0.9332
1004.79 0.9327
1004.80 0.9326
1004.81 0.9326
1004.82 0.9326
1004.83 0.9325
1004.84 0.9325
1004.85 0.9320
1004.86 0.9316
1004.87 0.9311
1004.88 0.9307
1004.89 0.9303
1004.90 0.9301
1004.91 0.9300
1004.92 0.9299
1004.93 0.9298
1004.94 0.9297
1004.95 0.9293
1004.96 0.9284
1004.97 0.9281
1004.98 0.9278
1004.99 0.9274
1005.00 0.9273
1005.01 0.9271
1005.02 0.9269
1005.03 0.9267
1005.04 0.9265
1005.05 0.9263
1005.06 0.9261
1005.07 0.9258
1005.08 0.9256
1005.09 0.9254
1005.10 0.9251
1005.11 0.9248
1005.12 0.9245
1005.13 0.9242
1005.14 0.9240
1005.15 0.9238
1005.16 0.9237
1005.17 0.9235
1005.18 0.9234
1005.19 0.9238
1005.20 0.9235
1005.21 0.9231
1005.22 0.9228
1005.23 0.9224
1005.24 0.9221
1005.25 0.9221
1005.26 0.9220
1005.27 0.9220
1005.28 0.9220
1005.29 0.9220
1005.30 0.9215
1005.31 0.9211
1005.32 0.9207
1005.33 0.9203
1005.34 0.9199
1005.35 0.9199
1005.36 0.9200
1005.37 0.9200
1005.38 0.9200
1005.39 0.9201
1005.40 0.9196
1005.41 0.9191
1005.42 0.9186
1005.43 0.9181
1005.44 0.9176
1005.45 0.9177
1005.46 0.9179
1005.47 0.9180
1005.48 0.9181
1005.49 0.9182
1005.50 0.9176
1005.51 0.9171
1005.52 0.9165
1005.53 0.9160
1005.54 0.9154
1005.55 0.9156
1005.56 0.9157
1005.57 0.9158
1005.58 0.9160
1005.59 0.9161
1005.60 0.9155
1005.61 0.9149
1005.62 0.9143
1005.63 0.9138
1005.64 0.9132
1005.65 0.9133
1005.66 0.9135
1005.67 0.9136
1005.68 0.9137
1005.69 0.9139
1005.70 0.9133
1005.71 0.9127
1005.72 0.9121
1005.73 0.9115
1005.74 0.9109
1005.75 0.9110
1005.76 0.9111
1005.77 0.9112
1005.78 0.9113
1005.79 0.9114
1005.80 0.9109
1005.81 0.9103
1005.82 0.9097
1005.83 0.9091
1005.84 0.9085
1005.85 0.9085
1005.86 0.9086
1005.87 0.9087
1005.88 0.9088
1005.89 0.9089
1005.90 0.9083
1005.91 0.9077
1005.92 0.9072
1005.93 0.9066
1005.94 0.9060
1005.95 0.9061
1005.96 0.9061
1005.97 0.9061
1005.98 0.9061
1005.99 0.9062
1006.00 0.9056
1006.01 0.9051
1006.02 0.9046
1006.03 0.9041
1006.04 0.9036
1006.05 0.9036
1006.06 0.9035
1006.07 0.9035
1006.08 0.9034
1006.09 0.9034
1006.10 0.9030
1006.11 0.9025
1006.12 0.9021
1006.13 0.9017
1006.14 0.9012
1006.15 0.9011
1006.16 0.9010
1006.17 0.9009
1006.18 0.9007
1006.19 0.9006
1006.20 0.8997
1006.21 0.8994
1006.22 0.8991
1006.23 0.8988
1006.24 0.8985
1006.25 0.8983
1006.26 0.8981
1006.27 0.8979
1006.28 0.8977
1006.29 0.8975
1006.30 0.8973
1006.31 0.8971
1006.32 0.8968
1006.33 0.8966
1006.34 0.8964
1006.35 0.8961
1006.36 0.8958
1006.37 0.8955
1006.38 0.8953
1006.39 0.8950
1006.40 0.8948
1006.41 0.8947
1006.42 0.8946
1006.43 0.8944
1006.44 0.8948
1006.45 0.8945
1006.46 0.8941
1006.47 0.8938
1006.48 0.8935
1006.49 0.8931
1006.50 0.8931
1006.51 0.8931
1006.52 0.8930
1006.53 0.8930
1006.54 0.8930
1006.55 0.8925
1006.56 0.8921
1006.57 0.8917
1006.58 0.8913
1006.59 0.8909
1006.60 0.8909
1006.61 0.8910
1006.62 0.8910
1006.63 0.8910
1006.64 0.8911
1006.65 0.8906
1006.66 0.8901
1006.67 0.8896
1006.68 0.8892
1006.69 0.8887
1006.70 0.8888
1006.71 0.8889
1006.72 0.8890
1006.73 0.8890
1006.74 0.8891
1006.75 0.8886
1006.76 0.8881
1006.77 0.8875
1006.78 0.8870
1006.79 0.8865
1006.80 0.8866
1006.81 0.8867
1006.82 0.8868
1006.83 0.8870
1006.84 0.8871
1006.85 0.8865
1006.86 0.8859
1006.87 0.8854
1006.88 0.8848
1006.89 0.8842
1006.90 0.8843
1006.91 0.8845
1006.92 0.8846
1006.93 0.8847
1006.94 0.8849
1006.95 0.8843
1006.96 0.8837
1006.97 0.8831
1006.98 0.8825
1006.99 0.8819
1007.00 0.8820
1007.01 0.8821
1007.02 0.8822
1007.03 0.8823
1007.04 0.8824
1007.05 0.8819
1007.06 0.8813
1007.07 0.8807
1007.08 0.8801
1007.09 0.8795
1007.10 0.8796
1007.11 0.8797
1007.12 0.8797
1007.13 0.8798
1007.14 0.8799
1007.15 0.8793
1007.16 0.8788
1007.17 0.8782
1007.18 0.8777
1007.19 0.8771
1007.20 0.8771
1007.21 0.8771
1007.22 0.8772
1007.23 0.8772
1007.24 0.8772
1007.25 0.8767
1007.26 0.8762
1007.27 0.8757
1007.28 0.8752
1007.29 0.8747
1007.30 0.8746
1007.31 0.8746
1007.32 0.8745
1007.33 0.8745
1007.34 0.8744
1007.35 0.8740
1007.36 0.8736
1007.37 0.8732
1007.38 0.8727
1007.39 0.8723
1007.40 0.8722
1007.41 0.8721
1007.42 0.8719
1007.43 0.8718
1007.44 0.8717
1007.45 0.8708
1007.46 0.8705
1007.47 0.8702
1007.48 0.8699
1007.49 0.8696
1007.50 0.8694
1007.51 0.8692
1007.52 0.8690
1007.53 0.8688
1007.54 0.8686
1007.55 0.8684
1007.56 0.8682
1007.57 0.8680
1007.58 0.8677
1007.59 0.8675
1007.60 0.8672
1007.61 0.8669
1007.62 0.8667
1007.63 0.8664
1007.64 0.8661
1007.65 0.8660
1007.66 0.8658
1007.67 0.8657
1007.68 0.8661
1007.69 0.8659
1007.70 0.8656
1007.71 0.8653
1007.72 0.8649
1007.73 0.8646
1007.74 0.8643
1007.75 0.8642
1007.76 0.8642
1007.77 0.8642
1007.78 0.8641
1007.79 0.8641
1007.80 0.8637
1007.81 0.8633
1007.82 0.8629
1007.83 0.8625
1007.84 0.8621
1007.85 0.8621
1007.86 0.8621
1007.87 0.8622
1007.88 0.8622
1007.89 0.8622
1007.90 0.8618
1007.91 0.8613
1007.92 0.8608
1007.93 0.8603
1007.94 0.8599
1007.95 0.8600
1007.96 0.8600
1007.97 0.8601
1007.98 0.8602
1007.99 0.8603
1008.00 0.8598
1008.01 0.8593
1008.02 0.8588
1008.03 0.8582
1008.04 0.8577
1008.05 0.8578
1008.06 0.8579
1008.07 0.8580
1008.08 0.8581
1008.09 0.8583
1008.10 0.8577
1008.11 0.8572
1008.12 0.8566
1008.13 0.8561
1008.14 0.8555
1008.15 0.8556
1008.16 0.8557
1008.17 0.8559
1008.18 0.8560
1008.19 0.8561
1008.20 0.8556
1008.21 0.8550
1008.22 0.8544
1008.23 0.8538
1008.24 0.8533
1008.25 0.8534
1008.26 0.8535
1008.27 0.8535
1008.28 0.8536
1008.29 0.8538
1008.30 0.8532
1008.31 0.8527
1008.32 0.8521
1008.33 0.8515
1008.34 0.8510
1008.35 0.8510
1008.36 0.8511
1008.37 0.8511
1008.38 0.8512
1008.39 0.8514
1008.40 0.8508
1008.41 0.8503
1008.42 0.8497
1008.43 0.8492
1008.44 0.8487
1008.45 0.8487
1008.46 0.8487
1008.47 0.8487
1008.48 0.8487
1008.49 0.8488
1008.50 0.8483
1008.51 0.8478
1008.52 0.8474
1008.53 0.8469
1008.54 0.8464
1008.55 0.8463
1008.56 0.8463
1008.57 0.8462
1008.58 0.8462
1008.59 0.8463
1008.60 0.8458
1008.61 0.8454
1008.62 0.8450
1008.63 0.8446
1008.64 0.8442
1008.65 0.8440
1008.66 0.8439
1008.67 0.8438
1008.68 0.8437
1008.69 0.8437
1008.70 0.8429
1008.71 0.8426
1008.72 0.8423
1008.73 0.8419
1008.74 0.8416
1008.75 0.8414
1008.76 0.8413
1008.77 0.8411
1008.78 0.8409
1008.79 0.8409
1008.80 0.8407
1008.81 0.8405
1008.82 0.8402
1008.83 0.8400
1008.84 0.8398
1008.85 0.8395
1008.86 0.8392
1008.87 0.8390
1008.88 0.8387
1008.89 0.8387
1008.90 0.8385
1008.91 0.8384
1008.92 0.8382
1008.93 0.8386
1008.94 0.8385
1008.95 0.8381
1008.96 0.8378
1008.97 0.8375
1008.98 0.8371
1008.99 0.8371
1009.00 0.8371
1009.01 0.8370
1009.02 0.8370
1009.03 0.8369
1009.04 0.8369
1009.05 0.8365
1009.06 0.8361
1009.07 0.8357
1009.08 0.8353
1009.09 0.8352
1009.10 0.8352
1009.11 0.8353
1009.12 0.8353
1009.13 0.8353
1009.14 0.8354
1009.15 0.8349
1009.16 0.8344
1009.17 0.8340
1009.18 0.8335
1009.19 0.8334
1009.20 0.8335
1009.21 0.8335
1009.22 0.8336
1009.23 0.8337
1009.24 0.8338
1009.25 0.8333
1009.26 0.8328
1009.27 0.8322
1009.28 0.8317
1009.29 0.8316
1009.30 0.8317
1009.31 0.8318
1009.32 0.8319
1009.33 0.8320
1009.34 0.8321
1009.35 0.8316
1009.36 0.8310
1009.37 0.8305
1009.38 0.8299
1009.39 0.8297
1009.40 0.8298
1009.41 0.8299
1009.42 0.8300
1009.43 0.8301
1009.44 0.8303
1009.45 0.8297
1009.46 0.8291
1009.47 0.8286
1009.48 0.8280
1009.49 0.8278
1009.50 0.8278
1009.51 0.8279
1009.52 0.8280
1009.53 0.8281
1009.54 0.8283
1009.55 0.8277
1009.56 0.8271
1009.57 0.8266
1009.58 0.8260
1009.59 0.8257
1009.60 0.8258
1009.61 0.8258
1009.62 0.8259
1009.63 0.8259
1009.64 0.8261
1009.65 0.8255
1009.66 0.8250
1009.67 0.8245
1009.68 0.8240
1009.69 0.8236
1009.70 0.8236
1009.71 0.8236
1009.72 0.8236
1009.73 0.8236
1009.74 0.8237
1009.75 0.8233
1009.76 0.8228
1009.77 0.8223
1009.78 0.8218
1009.79 0.8214
1009.80 0.8214
1009.81 0.8213
1009.82 0.8212
1009.83 0.8212
1009.84 0.8213
1009.85 0.8209
1009.86 0.8204
1009.87 0.8200
1009.88 0.8196
1009.89 0.8192
1009.90 0.8191
1009.91 0.8189
1009.92 0.8188
1009.93 0.8187
1009.94 0.8187
1009.95 0.8179
1009.96 0.8176
1009.97 0.8173
1009.98 0.8170
1009.99 0.8165
1010.00 0.8164
1010.01 0.8162
1010.02 0.8160
1010.03 0.8158
1010.04 0.8158
1010.05 0.8156
1010.06 0.8154
1010.07 0.8151
1010.08 0.8149
1010.09 0.8144
1010.10 0.8141
1010.11 0.8139
1010.12 0.8136
1010.13 0.8133
1010.14 0.8133
1010.15 0.8131
1010.16 0.8130
1010.17 0.8128
1010.18 0.8132
1010.19 0.8127
1010.20 0.8124
1010.21 0.8120
1010.22 0.8117
1010.23 0.8114
1010.24 0.8113
1010.25 0.8113
1010.26 0.8112
1010.27 0.8112
1010.28 0.8111
1010.29 0.8106
1010.30 0.8102
1010.31 0.8098
1010.32 0.8094
1010.33 0.8090
1010.34 0.8089
1010.35 0.8089
1010.36 0.8089
1010.37 0.8090
1010.38 0.8090
1010.39 0.8084
1010.40 0.8079
1010.41 0.8075
1010.42 0.8070
1010.43 0.8066
1010.44 0.8064
1010.45 0.8065
1010.46 0.8066
1010.47 0.8066
1010.48 0.8067
1010.49 0.8061
1010.50 0.8056
1010.51 0.8051
1010.52 0.8046
1010.53 0.8041
1010.54 0.8039
1010.55 0.8040
1010.56 0.8041
1010.57 0.8042
1010.58 0.8043
1010.59 0.8037
1010.60 0.8031
1010.61 0.8026
1010.62 0.8021
1010.63 0.8015
1010.64 0.8013
1010.65 0.8014
1010.66 0.8015
1010.67 0.8016
1010.68 0.8017
1010.69 0.8011
1010.70 0.8005
1010.71 0.8000
1010.72 0.7994
1010.73 0.7989
1010.74 0.7986
1010.75 0.7987
1010.76 0.7988
1010.77 0.7988
1010.78 0.7989
1010.79 0.7983
1010.80 0.7978
1010.81 0.7972
1010.82 0.7967
1010.83 0.7961
1010.84 0.7959
1010.85 0.7959
1010.86 0.7959
1010.87 0.7960
1010.88 0.7960
1010.89 0.7955
