# Provided by ESA in 10/2012
# Important Notes:
# The data contained here correspond to the OLCI Spectral Model CDR derived in 2011.
# The data have been calculated for the camera 4, pointing nadir.
852.71  0.0006
852.72  0.0007
852.73  0.0007
852.74  0.0007
852.75  0.0008
852.76  0.0008
852.77  0.0008
852.78  0.0009
852.79  0.0009
852.80  0.0010
852.81  0.0010
852.82  0.0010
852.83  0.0011
852.84  0.0012
852.85  0.0012
852.86  0.0013
852.87  0.0013
852.88  0.0014
852.89  0.0014
852.90  0.0015
852.91  0.0015
852.92  0.0016
852.93  0.0017
852.94  0.0018
852.95  0.0019
852.96  0.0019
852.97  0.0020
852.98  0.0021
852.99  0.0022
853.00  0.0023
853.01  0.0023
853.02  0.0025
853.03  0.0026
853.04  0.0027
853.05  0.0028
853.06  0.0029
853.07  0.0030
853.08  0.0032
853.09  0.0033
853.10  0.0034
853.11  0.0035
853.12  0.0037
853.13  0.0039
853.14  0.0040
853.15  0.0042
853.16  0.0044
853.17  0.0045
853.18  0.0047
853.19  0.0049
853.20  0.0050
853.21  0.0052
853.22  0.0054
853.23  0.0057
853.24  0.0059
853.25  0.0061
853.26  0.0064
853.27  0.0066
853.28  0.0069
853.29  0.0071
853.30  0.0073
853.31  0.0076
853.32  0.0079
853.33  0.0082
853.34  0.0086
853.35  0.0089
853.36  0.0092
853.37  0.0095
853.38  0.0099
853.39  0.0102
853.40  0.0105
853.41  0.0109
853.42  0.0113
853.43  0.0118
853.44  0.0122
853.45  0.0126
853.46  0.0131
853.47  0.0135
853.48  0.0140
853.49  0.0144
853.50  0.0149
853.51  0.0153
853.52  0.0159
853.53  0.0165
853.54  0.0171
853.55  0.0177
853.56  0.0183
853.57  0.0189
853.58  0.0195
853.59  0.0201
853.60  0.0207
853.61  0.0213
853.62  0.0221
853.63  0.0229
853.64  0.0237
853.65  0.0245
853.66  0.0253
853.67  0.0260
853.68  0.0268
853.69  0.0276
853.70  0.0284
853.71  0.0292
853.72  0.0302
853.73  0.0312
853.74  0.0323
853.75  0.0333
853.76  0.0343
853.77  0.0353
853.78  0.0363
853.79  0.0373
853.80  0.0384
853.81  0.0394
853.82  0.0407
853.83  0.0420
853.84  0.0433
853.85  0.0446
853.86  0.0458
853.87  0.0471
853.88  0.0484
853.89  0.0497
853.90  0.0510
853.91  0.0523
853.92  0.0539
853.93  0.0555
853.94  0.0571
853.95  0.0587
853.96  0.0610
853.97  0.0626
853.98  0.0643
853.99  0.0659
854.00  0.0676
854.01  0.0692
854.02  0.0712
854.03  0.0732
854.04  0.0752
854.05  0.0772
854.06  0.0792
854.07  0.0813
854.08  0.0833
854.09  0.0853
854.10  0.0873
854.11  0.0894
854.12  0.0918
854.13  0.0942
854.14  0.0966
854.15  0.0990
854.16  0.1015
854.17  0.1039
854.18  0.1063
854.19  0.1088
854.20  0.1112
854.21  0.1137
854.22  0.1165
854.23  0.1194
854.24  0.1223
854.25  0.1251
854.26  0.1280
854.27  0.1309
854.28  0.1338
854.29  0.1367
854.30  0.1396
854.31  0.1425
854.32  0.1458
854.33  0.1491
854.34  0.1525
854.35  0.1558
854.36  0.1591
854.37  0.1625
854.38  0.1659
854.39  0.1692
854.40  0.1726
854.41  0.1760
854.42  0.1798
854.43  0.1836
854.44  0.1874
854.45  0.1912
854.46  0.1950
854.47  0.1988
854.48  0.2027
854.49  0.2065
854.50  0.2104
854.51  0.2143
854.52  0.2185
854.53  0.2228
854.54  0.2270
854.55  0.2312
854.56  0.2355
854.57  0.2398
854.58  0.2442
854.59  0.2485
854.60  0.2528
854.61  0.2572
854.62  0.2618
854.63  0.2665
854.64  0.2711
854.65  0.2758
854.66  0.2804
854.67  0.2852
854.68  0.2900
854.69  0.2948
854.70  0.2995
854.71  0.3043
854.72  0.3093
854.73  0.3143
854.74  0.3193
854.75  0.3243
854.76  0.3293
854.77  0.3345
854.78  0.3397
854.79  0.3448
854.80  0.3500
854.81  0.3551
854.82  0.3604
854.83  0.3657
854.84  0.3710
854.85  0.3763
854.86  0.3815
854.87  0.3870
854.88  0.3925
854.89  0.3979
854.90  0.4034
854.91  0.4089
854.92  0.4143
854.93  0.4198
854.94  0.4252
854.95  0.4307
854.96  0.4361
854.97  0.4418
854.98  0.4475
854.99  0.4532
855.00  0.4589
855.01  0.4645
855.02  0.4700
855.03  0.4756
855.04  0.4811
855.05  0.4866
855.06  0.4921
855.07  0.4979
855.08  0.5037
855.09  0.5095
855.10  0.5152
855.11  0.5210
855.12  0.5265
855.13  0.5319
855.14  0.5374
855.15  0.5429
855.16  0.5483
855.17  0.5541
855.18  0.5599
855.19  0.5656
855.20  0.5714
855.21  0.5772
855.22  0.5831
855.23  0.5884
855.24  0.5937
855.25  0.5990
855.26  0.6043
855.27  0.6100
855.28  0.6157
855.29  0.6214
855.30  0.6270
855.31  0.6327
855.32  0.6377
855.33  0.6428
855.34  0.6478
855.35  0.6529
855.36  0.6579
855.37  0.6634
855.38  0.6688
855.39  0.6743
855.40  0.6797
855.41  0.6851
855.42  0.6898
855.43  0.6945
855.44  0.6992
855.45  0.7039
855.46  0.7086
855.47  0.7137
855.48  0.7188
855.49  0.7239
855.50  0.7290
855.51  0.7341
855.52  0.7384
855.53  0.7427
855.54  0.7469
855.55  0.7512
855.56  0.7555
855.57  0.7602
855.58  0.7649
855.59  0.7696
855.60  0.7743
855.61  0.7790
855.62  0.7827
855.63  0.7865
855.64  0.7904
855.65  0.7942
855.66  0.7980
855.67  0.8022
855.68  0.8064
855.69  0.8107
855.70  0.8149
855.71  0.8191
855.72  0.8224
855.73  0.8257
855.74  0.8291
855.75  0.8324
855.76  0.8357
855.77  0.8395
855.78  0.8432
855.79  0.8469
855.80  0.8506
855.81  0.8543
855.82  0.8571
855.83  0.8600
855.84  0.8629
855.85  0.8657
855.86  0.8686
855.87  0.8718
855.88  0.8750
855.89  0.8782
855.90  0.8814
855.91  0.8846
855.92  0.8869
855.93  0.8894
855.94  0.8918
855.95  0.8942
855.96  0.8967
855.97  0.8994
855.98  0.9020
855.99  0.9047
856.00  0.9074
856.01  0.9101
856.02  0.9120
856.03  0.9140
856.04  0.9161
856.05  0.9182
856.06  0.9202
856.07  0.9224
856.08  0.9246
856.09  0.9268
856.10  0.9289
856.11  0.9311
856.12  0.9327
856.13  0.9344
856.14  0.9361
856.15  0.9378
856.16  0.9396
856.17  0.9413
856.18  0.9430
856.19  0.9447
856.20  0.9464
856.21  0.9482
856.22  0.9494
856.23  0.9509
856.24  0.9523
856.25  0.9538
856.26  0.9552
856.27  0.9565
856.28  0.9578
856.29  0.9591
856.30  0.9604
856.31  0.9617
856.32  0.9627
856.33  0.9639
856.34  0.9652
856.35  0.9664
856.36  0.9676
856.37  0.9686
856.38  0.9695
856.39  0.9704
856.40  0.9713
856.41  0.9722
856.42  0.9730
856.43  0.9741
856.44  0.9751
856.45  0.9762
856.46  0.9773
856.47  0.9785
856.48  0.9791
856.49  0.9797
856.50  0.9803
856.51  0.9809
856.52  0.9815
856.53  0.9825
856.54  0.9835
856.55  0.9844
856.56  0.9854
856.57  0.9857
856.58  0.9861
856.59  0.9864
856.60  0.9868
856.61  0.9871
856.62  0.9876
856.63  0.9884
856.64  0.9893
856.65  0.9902
856.66  0.9910
856.67  0.9911
856.68  0.9912
856.69  0.9913
856.70  0.9915
856.71  0.9916
856.72  0.9919
856.73  0.9927
856.74  0.9935
856.75  0.9942
856.76  0.9950
856.77  0.9949
856.78  0.9949
856.79  0.9948
856.80  0.9947
856.81  0.9947
856.82  0.9949
856.83  0.9956
856.84  0.9963
856.85  0.9970
856.86  0.9977
856.87  0.9974
856.88  0.9972
856.89  0.9970
856.90  0.9969
856.91  0.9967
856.92  0.9968
856.93  0.9974
856.94  0.9980
856.95  0.9987
856.96  0.9993
856.97  0.9989
856.98  0.9986
856.99  0.9983
857.00  0.9981
857.01  0.9978
857.02  0.9979
857.03  0.9984
857.04  0.9989
857.05  0.9994
857.06  1.0000
857.07  0.9995
857.08  0.9992
857.09  0.9989
857.10  0.9986
857.11  0.9982
857.12  0.9983
857.13  0.9987
857.14  0.9992
857.15  0.9996
857.16  1.0000
857.17  0.9996
857.18  0.9992
857.19  0.9989
857.20  0.9986
857.21  0.9982
857.22  0.9983
857.23  0.9986
857.24  0.9990
857.25  0.9993
857.26  0.9996
857.27  0.9992
857.28  0.9989
857.29  0.9986
857.30  0.9983
857.31  0.9980
857.32  0.9981
857.33  0.9983
857.34  0.9985
857.35  0.9987
857.36  0.9990
857.37  0.9985
857.38  0.9983
857.39  0.9981
857.40  0.9979
857.41  0.9976
857.42  0.9978
857.43  0.9979
857.44  0.9980
857.45  0.9981
857.46  0.9982
857.47  0.9979
857.48  0.9977
857.49  0.9976
857.50  0.9974
857.51  0.9973
857.52  0.9975
857.53  0.9975
857.54  0.9975
857.55  0.9975
857.56  0.9975
857.57  0.9972
857.58  0.9972
857.59  0.9971
857.60  0.9971
857.61  0.9970
857.62  0.9973
857.63  0.9972
857.64  0.9971
857.65  0.9970
857.66  0.9969
857.67  0.9966
857.68  0.9967
857.69  0.9968
857.70  0.9968
857.71  0.9969
857.72  0.9978
857.73  0.9976
857.74  0.9975
857.75  0.9973
857.76  0.9971
857.77  0.9970
857.78  0.9971
857.79  0.9973
857.80  0.9975
857.81  0.9977
857.82  0.9981
857.83  0.9978
857.84  0.9976
857.85  0.9973
857.86  0.9971
857.87  0.9969
857.88  0.9972
857.89  0.9975
857.90  0.9977
857.91  0.9980
857.92  0.9984
857.93  0.9981
857.94  0.9978
857.95  0.9974
857.96  0.9971
857.97  0.9970
857.98  0.9974
857.99  0.9977
858.00  0.9980
858.01  0.9983
858.02  0.9988
858.03  0.9984
858.04  0.9980
858.05  0.9976
858.06  0.9972
858.07  0.9972
858.08  0.9975
858.09  0.9979
858.10  0.9983
858.11  0.9986
858.12  0.9991
858.13  0.9986
858.14  0.9982
858.15  0.9978
858.16  0.9974
858.17  0.9973
858.18  0.9977
858.19  0.9980
858.20  0.9984
858.21  0.9988
858.22  0.9992
858.23  0.9988
858.24  0.9983
858.25  0.9979
858.26  0.9974
858.27  0.9974
858.28  0.9977
858.29  0.9981
858.30  0.9984
858.31  0.9988
858.32  0.9992
858.33  0.9987
858.34  0.9983
858.35  0.9978
858.36  0.9974
858.37  0.9974
858.38  0.9977
858.39  0.9980
858.40  0.9983
858.41  0.9986
858.42  0.9989
858.43  0.9985
858.44  0.9981
858.45  0.9977
858.46  0.9973
858.47  0.9973
858.48  0.9975
858.49  0.9978
858.50  0.9980
858.51  0.9983
858.52  0.9985
858.53  0.9982
858.54  0.9978
858.55  0.9975
858.56  0.9971
858.57  0.9972
858.58  0.9973
858.59  0.9975
858.60  0.9977
858.61  0.9978
858.62  0.9980
858.63  0.9978
858.64  0.9975
858.65  0.9972
858.66  0.9970
858.67  0.9971
858.68  0.9971
858.69  0.9972
858.70  0.9973
858.71  0.9974
858.72  0.9969
858.73  0.9967
858.74  0.9966
858.75  0.9965
858.76  0.9963
858.77  0.9965
858.78  0.9965
858.79  0.9965
858.80  0.9965
858.81  0.9965
858.82  0.9966
858.83  0.9965
858.84  0.9965
858.85  0.9964
858.86  0.9964
858.87  0.9966
858.88  0.9965
858.89  0.9964
858.90  0.9963
858.91  0.9962
858.92  0.9962
858.93  0.9962
858.94  0.9963
858.95  0.9963
858.96  0.9964
858.97  0.9973
858.98  0.9971
858.99  0.9970
859.00  0.9968
859.01  0.9966
859.02  0.9965
859.03  0.9967
859.04  0.9968
859.05  0.9970
859.06  0.9972
859.07  0.9976
859.08  0.9973
859.09  0.9971
859.10  0.9968
859.11  0.9966
859.12  0.9963
859.13  0.9966
859.14  0.9969
859.15  0.9971
859.16  0.9974
859.17  0.9978
859.18  0.9975
859.19  0.9972
859.20  0.9968
859.21  0.9965
859.22  0.9962
859.23  0.9965
859.24  0.9968
859.25  0.9972
859.26  0.9975
859.27  0.9979
859.28  0.9975
859.29  0.9972
859.30  0.9968
859.31  0.9964
859.32  0.9960
859.33  0.9964
859.34  0.9967
859.35  0.9971
859.36  0.9974
859.37  0.9979
859.38  0.9975
859.39  0.9970
859.40  0.9966
859.41  0.9962
859.42  0.9958
859.43  0.9961
859.44  0.9965
859.45  0.9969
859.46  0.9972
859.47  0.9977
859.48  0.9972
859.49  0.9968
859.50  0.9963
859.51  0.9959
859.52  0.9954
859.53  0.9958
859.54  0.9961
859.55  0.9965
859.56  0.9968
859.57  0.9972
859.58  0.9967
859.59  0.9963
859.60  0.9959
859.61  0.9954
859.62  0.9950
859.63  0.9953
859.64  0.9956
859.65  0.9959
859.66  0.9962
859.67  0.9965
859.68  0.9961
859.69  0.9957
859.70  0.9953
859.71  0.9949
859.72  0.9945
859.73  0.9947
859.74  0.9950
859.75  0.9952
859.76  0.9955
859.77  0.9957
859.78  0.9954
859.79  0.9950
859.80  0.9947
859.81  0.9943
859.82  0.9940
859.83  0.9942
859.84  0.9943
859.85  0.9945
859.86  0.9946
859.87  0.9948
859.88  0.9946
859.89  0.9943
859.90  0.9940
859.91  0.9938
859.92  0.9935
859.93  0.9936
859.94  0.9937
859.95  0.9938
859.96  0.9938
859.97  0.9933
859.98  0.9932
859.99  0.9931
860.00  0.9929
860.01  0.9928
860.02  0.9926
860.03  0.9927
860.04  0.9927
860.05  0.9927
860.06  0.9927
860.07  0.9927
860.08  0.9927
860.09  0.9926
860.10  0.9926
860.11  0.9925
860.12  0.9925
860.13  0.9924
860.14  0.9923
860.15  0.9922
860.16  0.9921
860.17  0.9920
860.18  0.9921
860.19  0.9921
860.20  0.9922
860.21  0.9923
860.22  0.9929
860.23  0.9928
860.24  0.9926
860.25  0.9924
860.26  0.9923
860.27  0.9921
860.28  0.9923
860.29  0.9925
860.30  0.9927
860.31  0.9928
860.32  0.9930
860.33  0.9928
860.34  0.9925
860.35  0.9923
860.36  0.9920
860.37  0.9918
860.38  0.9921
860.39  0.9923
860.40  0.9926
860.41  0.9928
860.42  0.9931
860.43  0.9928
860.44  0.9925
860.45  0.9921
860.46  0.9918
860.47  0.9915
860.48  0.9918
860.49  0.9921
860.50  0.9925
860.51  0.9928
860.52  0.9931
860.53  0.9927
860.54  0.9924
860.55  0.9920
860.56  0.9916
860.57  0.9912
860.58  0.9916
860.59  0.9919
860.60  0.9923
860.61  0.9926
860.62  0.9930
860.63  0.9926
860.64  0.9921
860.65  0.9917
860.66  0.9913
860.67  0.9909
860.68  0.9912
860.69  0.9916
860.70  0.9920
860.71  0.9923
860.72  0.9927
860.73  0.9922
860.74  0.9918
860.75  0.9913
860.76  0.9909
860.77  0.9905
860.78  0.9908
860.79  0.9911
860.80  0.9915
860.81  0.9918
860.82  0.9922
860.83  0.9917
860.84  0.9913
860.85  0.9909
860.86  0.9904
860.87  0.9900
860.88  0.9903
860.89  0.9906
860.90  0.9909
860.91  0.9912
860.92  0.9915
860.93  0.9911
860.94  0.9907
860.95  0.9903
860.96  0.9899
860.97  0.9894
860.98  0.9897
860.99  0.9899
861.00  0.9902
861.01  0.9904
861.02  0.9906
861.03  0.9903
861.04  0.9899
861.05  0.9896
861.06  0.9893
861.07  0.9889
861.08  0.9891
861.09  0.9892
861.10  0.9894
861.11  0.9896
861.12  0.9897
861.13  0.9895
861.14  0.9892
861.15  0.9889
861.16  0.9887
861.17  0.9884
861.18  0.9885
861.19  0.9886
861.20  0.9887
861.21  0.9887
861.22  0.9888
861.23  0.9881
861.24  0.9879
861.25  0.9878
861.26  0.9877
861.27  0.9875
861.28  0.9875
861.29  0.9875
861.30  0.9875
861.31  0.9876
861.32  0.9876
861.33  0.9875
861.34  0.9875
861.35  0.9874
861.36  0.9874
861.37  0.9874
861.38  0.9873
861.39  0.9872
861.40  0.9871
861.41  0.9870
861.42  0.9869
861.43  0.9870
861.44  0.9870
861.45  0.9871
861.46  0.9871
861.47  0.9878
861.48  0.9876
861.49  0.9875
861.50  0.9873
861.51  0.9872
861.52  0.9870
861.53  0.9872
861.54  0.9873
861.55  0.9875
861.56  0.9877
861.57  0.9879
861.58  0.9876
861.59  0.9874
861.60  0.9871
861.61  0.9869
861.62  0.9867
861.63  0.9869
861.64  0.9872
861.65  0.9874
861.66  0.9877
861.67  0.9880
861.68  0.9876
861.69  0.9873
861.70  0.9870
861.71  0.9867
861.72  0.9864
861.73  0.9867
861.74  0.9870
861.75  0.9873
861.76  0.9877
861.77  0.9880
861.78  0.9876
861.79  0.9872
861.80  0.9868
861.81  0.9865
861.82  0.9861
861.83  0.9864
861.84  0.9868
861.85  0.9871
861.86  0.9875
861.87  0.9878
861.88  0.9874
861.89  0.9870
861.90  0.9866
861.91  0.9862
861.92  0.9857
861.93  0.9861
861.94  0.9865
861.95  0.9868
861.96  0.9872
861.97  0.9875
861.98  0.9871
861.99  0.9866
862.00  0.9862
862.01  0.9858
862.02  0.9853
862.03  0.9857
862.04  0.9860
862.05  0.9863
862.06  0.9867
862.07  0.9870
862.08  0.9866
862.09  0.9861
862.10  0.9857
862.11  0.9853
862.12  0.9848
862.13  0.9851
862.14  0.9854
862.15  0.9857
862.16  0.9860
862.17  0.9863
862.18  0.9859
862.19  0.9855
862.20  0.9851
862.21  0.9847
862.22  0.9843
862.23  0.9846
862.24  0.9848
862.25  0.9850
862.26  0.9853
862.27  0.9855
862.28  0.9852
862.29  0.9848
862.30  0.9845
862.31  0.9841
862.32  0.9838
862.33  0.9839
862.34  0.9841
862.35  0.9843
862.36  0.9844
862.37  0.9846
862.38  0.9843
862.39  0.9841
862.40  0.9838
862.41  0.9836
862.42  0.9833
862.43  0.9834
862.44  0.9835
862.45  0.9835
862.46  0.9836
862.47  0.9837
862.48  0.9829
862.49  0.9828
862.50  0.9827
862.51  0.9825
862.52  0.9824
862.53  0.9824
862.54  0.9824
862.55  0.9824
862.56  0.9824
862.57  0.9824
862.58  0.9824
862.59  0.9824
862.60  0.9823
862.61  0.9823
862.62  0.9822
862.63  0.9821
862.64  0.9820
862.65  0.9820
862.66  0.9819
862.67  0.9818
862.68  0.9818
862.69  0.9819
862.70  0.9819
862.71  0.9820
862.72  0.9827
862.73  0.9825
862.74  0.9823
862.75  0.9822
862.76  0.9820
862.77  0.9819
862.78  0.9820
862.79  0.9822
862.80  0.9824
862.81  0.9826
862.82  0.9827
862.83  0.9825
862.84  0.9823
862.85  0.9820
862.86  0.9818
862.87  0.9815
862.88  0.9818
862.89  0.9820
862.90  0.9823
862.91  0.9826
862.92  0.9828
862.93  0.9825
862.94  0.9822
862.95  0.9819
862.96  0.9816
862.97  0.9812
862.98  0.9816
862.99  0.9819
863.00  0.9822
863.01  0.9825
863.02  0.9828
863.03  0.9825
863.04  0.9821
863.05  0.9817
863.06  0.9813
863.07  0.9809
863.08  0.9813
863.09  0.9816
863.10  0.9820
863.11  0.9823
863.12  0.9827
863.13  0.9823
863.14  0.9819
863.15  0.9814
863.16  0.9810
863.17  0.9806
863.18  0.9810
863.19  0.9813
863.20  0.9817
863.21  0.9820
863.22  0.9824
863.23  0.9819
863.24  0.9815
863.25  0.9811
863.26  0.9806
863.27  0.9802
863.28  0.9805
863.29  0.9809
863.30  0.9812
863.31  0.9815
863.32  0.9819
863.33  0.9814
863.34  0.9810
863.35  0.9806
863.36  0.9801
863.37  0.9797
863.38  0.9800
863.39  0.9803
863.40  0.9806
863.41  0.9809
863.42  0.9812
863.43  0.9808
863.44  0.9804
863.45  0.9800
863.46  0.9796
863.47  0.9792
863.48  0.9794
863.49  0.9797
863.50  0.9799
863.51  0.9801
863.52  0.9804
863.53  0.9800
863.54  0.9797
863.55  0.9793
863.56  0.9790
863.57  0.9787
863.58  0.9788
863.59  0.9790
863.60  0.9791
863.61  0.9793
863.62  0.9795
863.63  0.9792
863.64  0.9789
863.65  0.9787
863.66  0.9784
863.67  0.9782
863.68  0.9782
863.69  0.9783
863.70  0.9784
863.71  0.9785
863.72  0.9786
863.73  0.9778
863.74  0.9777
863.75  0.9775
863.76  0.9774
863.77  0.9773
863.78  0.9773
863.79  0.9773
863.80  0.9773
863.81  0.9773
863.82  0.9773
863.83  0.9773
863.84  0.9772
863.85  0.9772
863.86  0.9771
863.87  0.9771
863.88  0.9770
863.89  0.9769
863.90  0.9768
863.91  0.9767
863.92  0.9766
863.93  0.9767
863.94  0.9768
863.95  0.9768
863.96  0.9769
863.97  0.9775
863.98  0.9774
863.99  0.9772
864.00  0.9770
864.01  0.9769
864.02  0.9767
864.03  0.9769
864.04  0.9771
864.05  0.9773
864.06  0.9774
864.07  0.9776
864.08  0.9774
864.09  0.9771
864.10  0.9769
864.11  0.9766
864.12  0.9764
864.13  0.9767
864.14  0.9769
864.15  0.9772
864.16  0.9774
864.17  0.9777
864.18  0.9774
864.19  0.9771
864.20  0.9767
864.21  0.9764
864.22  0.9761
864.23  0.9764
864.24  0.9767
864.25  0.9771
864.26  0.9774
864.27  0.9777
864.28  0.9773
864.29  0.9769
864.30  0.9766
864.31  0.9762
864.32  0.9758
864.33  0.9762
864.34  0.9765
864.35  0.9769
864.36  0.9772
864.37  0.9776
864.38  0.9771
864.39  0.9767
864.40  0.9763
864.41  0.9759
864.42  0.9755
864.43  0.9758
864.44  0.9762
864.45  0.9765
864.46  0.9769
864.47  0.9772
864.48  0.9768
864.49  0.9764
864.50  0.9759
864.51  0.9755
864.52  0.9751
864.53  0.9754
864.54  0.9757
864.55  0.9761
864.56  0.9764
864.57  0.9767
864.58  0.9763
864.59  0.9759
864.60  0.9754
864.61  0.9750
864.62  0.9746
864.63  0.9749
864.64  0.9752
864.65  0.9755
864.66  0.9757
864.67  0.9760
864.68  0.9756
864.69  0.9752
864.70  0.9748
864.71  0.9744
864.72  0.9741
864.73  0.9743
864.74  0.9745
864.75  0.9748
864.76  0.9750
864.77  0.9752
864.78  0.9749
864.79  0.9745
864.80  0.9742
864.81  0.9739
864.82  0.9735
864.83  0.9737
864.84  0.9738
864.85  0.9740
864.86  0.9742
864.87  0.9743
864.88  0.9741
864.89  0.9738
864.90  0.9735
864.91  0.9733
864.92  0.9730
864.93  0.9731
864.94  0.9732
864.95  0.9733
864.96  0.9733
864.97  0.9734
864.98  0.9727
864.99  0.9725
865.00  0.9724
865.01  0.9722
865.02  0.9721
865.03  0.9721
865.04  0.9721
865.05  0.9720
865.06  0.9720
865.07  0.9720
865.08  0.9720
865.09  0.9719
865.10  0.9718
865.11  0.9718
865.12  0.9717
865.13  0.9716
865.14  0.9715
865.15  0.9714
865.16  0.9712
865.17  0.9711
865.18  0.9712
865.19  0.9712
865.20  0.9712
865.21  0.9713
865.22  0.9719
865.23  0.9717
865.24  0.9715
865.25  0.9713
865.26  0.9712
865.27  0.9710
865.28  0.9711
865.29  0.9713
865.30  0.9714
865.31  0.9716
865.32  0.9717
865.33  0.9715
865.34  0.9712
865.35  0.9709
865.36  0.9707
865.37  0.9704
865.38  0.9706
865.39  0.9709
865.40  0.9711
865.41  0.9713
865.42  0.9716
865.43  0.9712
865.44  0.9709
865.45  0.9706
865.46  0.9702
865.47  0.9699
865.48  0.9702
865.49  0.9705
865.50  0.9708
865.51  0.9711
865.52  0.9713
865.53  0.9710
865.54  0.9706
865.55  0.9702
865.56  0.9698
865.57  0.9694
865.58  0.9697
865.59  0.9700
865.60  0.9703
865.61  0.9707
865.62  0.9710
865.63  0.9705
865.64  0.9701
865.65  0.9697
865.66  0.9692
865.67  0.9688
865.68  0.9691
865.69  0.9695
865.70  0.9698
865.71  0.9701
865.72  0.9704
865.73  0.9700
865.74  0.9695
865.75  0.9691
865.76  0.9686
865.77  0.9682
865.78  0.9685
865.79  0.9688
865.80  0.9691
865.81  0.9694
865.82  0.9697
865.83  0.9693
865.84  0.9688
865.85  0.9683
865.86  0.9679
865.87  0.9674
865.88  0.9677
865.89  0.9680
865.90  0.9682
