# Provided by ESA in 10/2012
# Important Notes:
# The data contained here correspond to the OLCI Spectral Model CDR derived in 2011.
# The data have been calculated for the camera 4, pointing nadir.
768.90  0.0006
768.91  0.0006
768.92  0.0007
768.93  0.0007
768.94  0.0008
768.95  0.0008
768.96  0.0008
768.97  0.0009
768.98  0.0009
768.99  0.0009
769.00  0.0010
769.01  0.0010
769.02  0.0011
769.03  0.0011
769.04  0.0012
769.05  0.0012
769.06  0.0013
769.07  0.0013
769.08  0.0014
769.09  0.0014
769.10  0.0015
769.11  0.0016
769.12  0.0017
769.13  0.0017
769.14  0.0018
769.15  0.0019
769.16  0.0020
769.17  0.0020
769.18  0.0021
769.19  0.0022
769.20  0.0023
769.21  0.0024
769.22  0.0025
769.23  0.0026
769.24  0.0027
769.25  0.0029
769.26  0.0030
769.27  0.0031
769.28  0.0032
769.29  0.0033
769.30  0.0034
769.31  0.0036
769.32  0.0038
769.33  0.0039
769.34  0.0041
769.35  0.0043
769.36  0.0044
769.37  0.0046
769.38  0.0048
769.39  0.0049
769.40  0.0051
769.41  0.0053
769.42  0.0055
769.43  0.0058
769.44  0.0060
769.45  0.0062
769.46  0.0065
769.47  0.0067
769.48  0.0069
769.49  0.0072
769.50  0.0074
769.51  0.0077
769.52  0.0080
769.53  0.0084
769.54  0.0087
769.55  0.0090
769.56  0.0093
769.57  0.0097
769.58  0.0100
769.59  0.0103
769.60  0.0106
769.61  0.0111
769.62  0.0115
769.63  0.0119
769.64  0.0124
769.65  0.0128
769.66  0.0132
769.67  0.0137
769.68  0.0141
769.69  0.0146
769.70  0.0150
769.71  0.0156
769.72  0.0162
769.73  0.0168
769.74  0.0173
769.75  0.0179
769.76  0.0185
769.77  0.0191
769.78  0.0197
769.79  0.0203
769.80  0.0209
769.81  0.0216
769.82  0.0224
769.83  0.0232
769.84  0.0240
769.85  0.0247
769.86  0.0255
769.87  0.0263
769.88  0.0271
769.89  0.0278
769.90  0.0286
769.91  0.0296
769.92  0.0306
769.93  0.0316
769.94  0.0326
769.95  0.0336
769.96  0.0346
769.97  0.0356
769.98  0.0366
769.99  0.0376
770.00  0.0386
770.01  0.0398
770.02  0.0411
770.03  0.0424
770.04  0.0437
770.05  0.0449
770.06  0.0462
770.07  0.0475
770.08  0.0487
770.09  0.0500
770.10  0.0513
770.11  0.0528
770.12  0.0544
770.13  0.0560
770.14  0.0576
770.15  0.0598
770.16  0.0614
770.17  0.0630
770.18  0.0646
770.19  0.0662
770.20  0.0679
770.21  0.0698
770.22  0.0718
770.23  0.0738
770.24  0.0757
770.25  0.0777
770.26  0.0797
770.27  0.0817
770.28  0.0837
770.29  0.0857
770.30  0.0877
770.31  0.0900
770.32  0.0924
770.33  0.0948
770.34  0.0972
770.35  0.0995
770.36  0.1019
770.37  0.1043
770.38  0.1067
770.39  0.1091
770.40  0.1115
770.41  0.1144
770.42  0.1172
770.43  0.1200
770.44  0.1228
770.45  0.1256
770.46  0.1285
770.47  0.1313
770.48  0.1342
770.49  0.1370
770.50  0.1399
770.51  0.1431
770.52  0.1464
770.53  0.1497
770.54  0.1530
770.55  0.1562
770.56  0.1595
770.57  0.1629
770.58  0.1662
770.59  0.1695
770.60  0.1728
770.61  0.1766
770.62  0.1803
770.63  0.1840
770.64  0.1878
770.65  0.1915
770.66  0.1953
770.67  0.1991
770.68  0.2029
770.69  0.2067
770.70  0.2105
770.71  0.2147
770.72  0.2189
770.73  0.2230
770.74  0.2272
770.75  0.2314
770.76  0.2357
770.77  0.2399
770.78  0.2442
770.79  0.2485
770.80  0.2527
770.81  0.2573
770.82  0.2619
770.83  0.2665
770.84  0.2711
770.85  0.2757
770.86  0.2804
770.87  0.2851
770.88  0.2898
770.89  0.2945
770.90  0.2992
770.91  0.3041
770.92  0.3091
770.93  0.3140
770.94  0.3189
770.95  0.3239
770.96  0.3290
770.97  0.3341
770.98  0.3391
770.99  0.3442
771.00  0.3493
771.01  0.3545
771.02  0.3597
771.03  0.3649
771.04  0.3701
771.05  0.3754
771.06  0.3808
771.07  0.3861
771.08  0.3915
771.09  0.3969
771.10  0.4023
771.11  0.4077
771.12  0.4131
771.13  0.4185
771.14  0.4239
771.15  0.4292
771.16  0.4349
771.17  0.4405
771.18  0.4461
771.19  0.4517
771.20  0.4573
771.21  0.4627
771.22  0.4682
771.23  0.4736
771.24  0.4791
771.25  0.4845
771.26  0.4902
771.27  0.4960
771.28  0.5017
771.29  0.5074
771.30  0.5131
771.31  0.5185
771.32  0.5239
771.33  0.5293
771.34  0.5347
771.35  0.5401
771.36  0.5458
771.37  0.5515
771.38  0.5572
771.39  0.5629
771.40  0.5692
771.41  0.5745
771.42  0.5798
771.43  0.5850
771.44  0.5903
771.45  0.5955
771.46  0.6012
771.47  0.6068
771.48  0.6124
771.49  0.6180
771.50  0.6236
771.51  0.6286
771.52  0.6336
771.53  0.6386
771.54  0.6436
771.55  0.6486
771.56  0.6540
771.57  0.6594
771.58  0.6648
771.59  0.6702
771.60  0.6756
771.61  0.6803
771.62  0.6849
771.63  0.6896
771.64  0.6942
771.65  0.6989
771.66  0.7040
771.67  0.7090
771.68  0.7141
771.69  0.7192
771.70  0.7242
771.71  0.7285
771.72  0.7327
771.73  0.7370
771.74  0.7412
771.75  0.7455
771.76  0.7501
771.77  0.7548
771.78  0.7595
771.79  0.7641
771.80  0.7688
771.81  0.7726
771.82  0.7764
771.83  0.7802
771.84  0.7840
771.85  0.7878
771.86  0.7920
771.87  0.7962
771.88  0.8004
771.89  0.8046
771.90  0.8088
771.91  0.8121
771.92  0.8154
771.93  0.8188
771.94  0.8221
771.95  0.8254
771.96  0.8291
771.97  0.8328
771.98  0.8365
771.99  0.8402
772.00  0.8440
772.01  0.8468
772.02  0.8497
772.03  0.8526
772.04  0.8554
772.05  0.8583
772.06  0.8615
772.07  0.8647
772.08  0.8679
772.09  0.8711
772.10  0.8743
772.11  0.8767
772.12  0.8792
772.13  0.8816
772.14  0.8841
772.15  0.8865
772.16  0.8892
772.17  0.8919
772.18  0.8946
772.19  0.8972
772.20  0.8999
772.21  0.9020
772.22  0.9041
772.23  0.9061
772.24  0.9082
772.25  0.9103
772.26  0.9125
772.27  0.9147
772.28  0.9169
772.29  0.9191
772.30  0.9212
772.31  0.9230
772.32  0.9247
772.33  0.9265
772.34  0.9282
772.35  0.9300
772.36  0.9317
772.37  0.9335
772.38  0.9352
772.39  0.9369
772.40  0.9387
772.41  0.9402
772.42  0.9416
772.43  0.9431
772.44  0.9446
772.45  0.9461
772.46  0.9474
772.47  0.9487
772.48  0.9500
772.49  0.9514
772.50  0.9527
772.51  0.9539
772.52  0.9552
772.53  0.9565
772.54  0.9577
772.55  0.9590
772.56  0.9600
772.57  0.9609
772.58  0.9619
772.59  0.9628
772.60  0.9637
772.61  0.9648
772.62  0.9659
772.63  0.9670
772.64  0.9681
772.65  0.9698
772.66  0.9705
772.67  0.9711
772.68  0.9718
772.69  0.9725
772.70  0.9731
772.71  0.9741
772.72  0.9751
772.73  0.9761
772.74  0.9771
772.75  0.9781
772.76  0.9785
772.77  0.9788
772.78  0.9792
772.79  0.9796
772.80  0.9800
772.81  0.9809
772.82  0.9818
772.83  0.9827
772.84  0.9835
772.85  0.9844
772.86  0.9846
772.87  0.9847
772.88  0.9849
772.89  0.9851
772.90  0.9852
772.91  0.9860
772.92  0.9868
772.93  0.9876
772.94  0.9884
772.95  0.9892
772.96  0.9892
772.97  0.9892
772.98  0.9892
772.99  0.9892
773.00  0.9891
773.01  0.9899
773.02  0.9906
773.03  0.9913
773.04  0.9920
773.05  0.9927
773.06  0.9926
773.07  0.9924
773.08  0.9923
773.09  0.9921
773.10  0.9920
773.11  0.9926
773.12  0.9932
773.13  0.9939
773.14  0.9945
773.15  0.9952
773.16  0.9949
773.17  0.9947
773.18  0.9944
773.19  0.9942
773.20  0.9940
773.21  0.9945
773.22  0.9950
773.23  0.9956
773.24  0.9961
773.25  0.9967
773.26  0.9964
773.27  0.9961
773.28  0.9958
773.29  0.9956
773.30  0.9953
773.31  0.9957
773.32  0.9962
773.33  0.9966
773.34  0.9971
773.35  0.9976
773.36  0.9973
773.37  0.9970
773.38  0.9967
773.39  0.9964
773.40  0.9961
773.41  0.9965
773.42  0.9968
773.43  0.9972
773.44  0.9976
773.45  0.9979
773.46  0.9977
773.47  0.9974
773.48  0.9972
773.49  0.9969
773.50  0.9966
773.51  0.9969
773.52  0.9972
773.53  0.9974
773.54  0.9977
773.55  0.9979
773.56  0.9978
773.57  0.9976
773.58  0.9974
773.59  0.9972
773.60  0.9970
773.61  0.9972
773.62  0.9973
773.63  0.9975
773.64  0.9976
773.65  0.9978
773.66  0.9977
773.67  0.9976
773.68  0.9975
773.69  0.9974
773.70  0.9973
773.71  0.9973
773.72  0.9974
773.73  0.9974
773.74  0.9975
773.75  0.9975
773.76  0.9975
773.77  0.9975
773.78  0.9975
773.79  0.9975
773.80  0.9975
773.81  0.9975
773.82  0.9974
773.83  0.9974
773.84  0.9973
773.85  0.9973
773.86  0.9974
773.87  0.9975
773.88  0.9976
773.89  0.9977
773.90  0.9978
773.91  0.9982
773.92  0.9981
773.93  0.9980
773.94  0.9979
773.95  0.9977
773.96  0.9980
773.97  0.9982
773.98  0.9984
773.99  0.9986
774.00  0.9988
774.01  0.9986
774.02  0.9984
774.03  0.9982
774.04  0.9980
774.05  0.9978
774.06  0.9981
774.07  0.9984
774.08  0.9987
774.09  0.9990
774.10  0.9993
774.11  0.9990
774.12  0.9987
774.13  0.9984
774.14  0.9982
774.15  0.9979
774.16  0.9983
774.17  0.9986
774.18  0.9990
774.19  0.9993
774.20  0.9997
774.21  0.9993
774.22  0.9990
774.23  0.9986
774.24  0.9983
774.25  0.9980
774.26  0.9984
774.27  0.9988
774.28  0.9992
774.29  0.9996
774.30  1.0000
774.31  0.9995
774.32  0.9991
774.33  0.9987
774.34  0.9984
774.35  0.9980
774.36  0.9984
774.37  0.9988
774.38  0.9992
774.39  0.9996
774.40  1.0000
774.41  0.9995
774.42  0.9991
774.43  0.9987
774.44  0.9983
774.45  0.9979
774.46  0.9983
774.47  0.9987
774.48  0.9991
774.49  0.9994
774.50  0.9998
774.51  0.9993
774.52  0.9989
774.53  0.9985
774.54  0.9981
774.55  0.9977
774.56  0.9981
774.57  0.9984
774.58  0.9988
774.59  0.9991
774.60  0.9994
774.61  0.9990
774.62  0.9986
774.63  0.9982
774.64  0.9979
774.65  0.9975
774.66  0.9978
774.67  0.9981
774.68  0.9983
774.69  0.9986
774.70  0.9989
774.71  0.9984
774.72  0.9981
774.73  0.9978
774.74  0.9975
774.75  0.9972
774.76  0.9974
774.77  0.9976
774.78  0.9978
774.79  0.9980
774.80  0.9982
774.81  0.9978
774.82  0.9976
774.83  0.9974
774.84  0.9972
774.85  0.9969
774.86  0.9971
774.87  0.9972
774.88  0.9973
774.89  0.9974
774.90  0.9975
774.91  0.9966
774.92  0.9965
774.93  0.9964
774.94  0.9963
774.95  0.9962
774.96  0.9963
774.97  0.9963
774.98  0.9964
774.99  0.9964
775.00  0.9965
775.01  0.9962
775.02  0.9962
775.03  0.9962
775.04  0.9962
775.05  0.9962
775.06  0.9961
775.07  0.9961
775.08  0.9960
775.09  0.9960
775.10  0.9959
775.11  0.9957
775.12  0.9958
775.13  0.9959
775.14  0.9960
775.15  0.9961
775.16  0.9966
775.17  0.9964
775.18  0.9963
775.19  0.9962
775.20  0.9961
775.21  0.9959
775.22  0.9962
775.23  0.9964
775.24  0.9966
775.25  0.9968
775.26  0.9966
775.27  0.9964
775.28  0.9962
775.29  0.9960
775.30  0.9958
775.31  0.9957
775.32  0.9960
775.33  0.9963
775.34  0.9966
775.35  0.9969
775.36  0.9966
775.37  0.9963
775.38  0.9960
775.39  0.9958
775.40  0.9955
775.41  0.9954
775.42  0.9958
775.43  0.9962
775.44  0.9965
775.45  0.9969
775.46  0.9965
775.47  0.9962
775.48  0.9958
775.49  0.9955
775.50  0.9951
775.51  0.9951
775.52  0.9955
775.53  0.9959
775.54  0.9963
775.55  0.9967
775.56  0.9963
775.57  0.9959
775.58  0.9955
775.59  0.9951
775.60  0.9947
775.61  0.9947
775.62  0.9951
775.63  0.9955
775.64  0.9959
775.65  0.9963
775.66  0.9959
775.67  0.9955
775.68  0.9951
775.69  0.9947
775.70  0.9942
775.71  0.9943
775.72  0.9946
775.73  0.9950
775.74  0.9954
775.75  0.9958
775.76  0.9953
775.77  0.9949
775.78  0.9945
775.79  0.9941
775.80  0.9937
775.81  0.9937
775.82  0.9941
775.83  0.9944
775.84  0.9947
775.85  0.9951
775.86  0.9946
775.87  0.9942
775.88  0.9939
775.89  0.9935
775.90  0.9931
775.91  0.9932
775.92  0.9935
775.93  0.9937
775.94  0.9940
775.95  0.9943
775.96  0.9938
775.97  0.9935
775.98  0.9932
775.99  0.9929
776.00  0.9926
776.01  0.9927
776.02  0.9929
776.03  0.9931
776.04  0.9933
776.05  0.9935
776.06  0.9931
776.07  0.9929
776.08  0.9927
776.09  0.9924
776.10  0.9922
776.11  0.9924
776.12  0.9925
776.13  0.9926
776.14  0.9927
776.15  0.9928
776.16  0.9919
776.17  0.9918
776.18  0.9917
776.19  0.9916
776.20  0.9915
776.21  0.9917
776.22  0.9918
776.23  0.9918
776.24  0.9919
776.25  0.9919
776.26  0.9916
776.27  0.9916
776.28  0.9916
776.29  0.9916
776.30  0.9916
776.31  0.9919
776.32  0.9919
776.33  0.9918
776.34  0.9918
776.35  0.9917
776.36  0.9915
776.37  0.9916
776.38  0.9917
776.39  0.9918
776.40  0.9919
776.41  0.9928
776.42  0.9927
776.43  0.9926
776.44  0.9924
776.45  0.9923
776.46  0.9922
776.47  0.9924
776.48  0.9926
776.49  0.9929
776.50  0.9931
776.51  0.9935
776.52  0.9933
776.53  0.9931
776.54  0.9929
776.55  0.9927
776.56  0.9926
776.57  0.9929
776.58  0.9932
776.59  0.9935
776.60  0.9938
776.61  0.9942
776.62  0.9940
776.63  0.9937
776.64  0.9934
776.65  0.9931
776.66  0.9931
776.67  0.9934
776.68  0.9938
776.69  0.9942
776.70  0.9945
776.71  0.9950
776.72  0.9947
776.73  0.9943
776.74  0.9940
776.75  0.9936
776.76  0.9936
776.77  0.9940
776.78  0.9944
776.79  0.9948
776.80  0.9952
776.81  0.9957
776.82  0.9953
776.83  0.9949
776.84  0.9945
776.85  0.9942
776.86  0.9941
776.87  0.9945
776.88  0.9950
776.89  0.9954
776.90  0.9958
776.91  0.9962
776.92  0.9958
776.93  0.9954
776.94  0.9950
776.95  0.9946
776.96  0.9946
776.97  0.9950
776.98  0.9954
776.99  0.9958
777.00  0.9961
777.01  0.9966
777.02  0.9962
777.03  0.9958
777.04  0.9954
777.05  0.9950
777.06  0.9950
777.07  0.9953
777.08  0.9957
777.09  0.9960
777.10  0.9964
777.11  0.9967
777.12  0.9964
777.13  0.9960
777.14  0.9956
777.15  0.9953
777.16  0.9953
777.17  0.9956
777.18  0.9959
777.19  0.9962
777.20  0.9964
777.21  0.9967
777.22  0.9964
777.23  0.9961
777.24  0.9958
777.25  0.9955
777.26  0.9956
777.27  0.9958
777.28  0.9960
777.29  0.9962
777.30  0.9964
777.31  0.9966
777.32  0.9964
777.33  0.9962
777.34  0.9960
777.35  0.9958
777.36  0.9959
777.37  0.9960
777.38  0.9961
777.39  0.9962
777.40  0.9964
777.41  0.9959
777.42  0.9958
777.43  0.9957
777.44  0.9956
777.45  0.9955
777.46  0.9957
777.47  0.9958
777.48  0.9958
777.49  0.9959
777.50  0.9959
777.51  0.9960
777.52  0.9960
777.53  0.9960
777.54  0.9960
777.55  0.9960
777.56  0.9962
777.57  0.9962
777.58  0.9961
777.59  0.9961
777.60  0.9960
777.61  0.9960
777.62  0.9961
777.63  0.9962
777.64  0.9963
777.65  0.9964
777.66  0.9973
777.67  0.9972
777.68  0.9971
777.69  0.9969
777.70  0.9968
777.71  0.9967
777.72  0.9969
777.73  0.9971
777.74  0.9974
777.75  0.9976
777.76  0.9980
777.77  0.9978
777.78  0.9976
777.79  0.9974
777.80  0.9972
777.81  0.9969
777.82  0.9973
777.83  0.9976
777.84  0.9979
777.85  0.9982
777.86  0.9986
777.87  0.9983
777.88  0.9981
777.89  0.9978
777.90  0.9975
777.91  0.9972
777.92  0.9976
777.93  0.9979
777.94  0.9983
777.95  0.9987
777.96  0.9991
777.97  0.9988
777.98  0.9985
777.99  0.9981
778.00  0.9978
778.01  0.9974
778.02  0.9978
778.03  0.9982
778.04  0.9986
778.05  0.9990
778.06  0.9995
778.07  0.9991
778.08  0.9987
778.09  0.9984
778.10  0.9980
778.11  0.9976
778.12  0.9980
778.13  0.9984
778.14  0.9988
778.15  0.9992
778.16  0.9997
778.17  0.9993
778.18  0.9989
778.19  0.9984
778.20  0.9980
778.21  0.9976
778.22  0.9980
778.23  0.9984
778.24  0.9988
778.25  0.9992
778.26  0.9996
778.27  0.9992
778.28  0.9988
778.29  0.9984
778.30  0.9980
778.31  0.9976
778.32  0.9979
778.33  0.9983
778.34  0.9986
778.35  0.9990
778.36  0.9993
778.37  0.9990
778.38  0.9986
778.39  0.9982
778.40  0.9979
778.41  0.9975
778.42  0.9978
778.43  0.9981
778.44  0.9983
778.45  0.9986
778.46  0.9989
778.47  0.9986
778.48  0.9983
778.49  0.9980
778.50  0.9977
778.51  0.9974
778.52  0.9976
778.53  0.9978
778.54  0.9980
778.55  0.9982
778.56  0.9984
778.57  0.9982
778.58  0.9980
778.59  0.9978
778.60  0.9975
778.61  0.9973
778.62  0.9974
778.63  0.9976
778.64  0.9977
778.65  0.9978
778.66  0.9973
778.67  0.9972
778.68  0.9971
778.69  0.9970
778.70  0.9969
778.71  0.9968
778.72  0.9969
778.73  0.9969
778.74  0.9970
778.75  0.9970
778.76  0.9971
778.77  0.9971
778.78  0.9971
778.79  0.9971
778.80  0.9971
778.81  0.9971
778.82  0.9970
778.83  0.9970
778.84  0.9969
778.85  0.9969
778.86  0.9968
778.87  0.9969
778.88  0.9970
778.89  0.9971
778.90  0.9972
778.91  0.9979
778.92  0.9978
778.93  0.9977
778.94  0.9976
778.95  0.9974
778.96  0.9973
778.97  0.9975
778.98  0.9978
778.99  0.9980
779.00  0.9982
779.01  0.9984
779.02  0.9982
779.03  0.9979
779.04  0.9977
779.05  0.9975
779.06  0.9972
779.07  0.9975
779.08  0.9978
779.09  0.9980
779.10  0.9983
779.11  0.9986
779.12  0.9983
779.13  0.9980
779.14  0.9977
779.15  0.9974
779.16  0.9971
779.17  0.9974
779.18  0.9977
779.19  0.9981
779.20  0.9984
779.21  0.9987
779.22  0.9984
779.23  0.9980
779.24  0.9976
779.25  0.9972
779.26  0.9969
779.27  0.9972
779.28  0.9976
779.29  0.9980
779.30  0.9984
779.31  0.9987
779.32  0.9983
779.33  0.9979
779.34  0.9975
779.35  0.9971
779.36  0.9967
779.37  0.9970
779.38  0.9974
779.39  0.9978
779.40  0.9982
779.41  0.9985
779.42  0.9981
779.43  0.9977
779.44  0.9972
779.45  0.9968
779.46  0.9964
779.47  0.9967
779.48  0.9971
779.49  0.9974
779.50  0.9978
779.51  0.9981
779.52  0.9977
779.53  0.9973
779.54  0.9969
779.55  0.9964
779.56  0.9960
779.57  0.9963
779.58  0.9966
779.59  0.9969
779.60  0.9973
779.61  0.9976
779.62  0.9972
779.63  0.9968
779.64  0.9964
779.65  0.9960
779.66  0.9956
779.67  0.9958
779.68  0.9961
779.69  0.9963
779.70  0.9966
779.71  0.9969
779.72  0.9965
779.73  0.9962
779.74  0.9959
779.75  0.9955
779.76  0.9952
779.77  0.9954
779.78  0.9955
779.79  0.9957
779.80  0.9959
779.81  0.9961
779.82  0.9958
779.83  0.9956
779.84  0.9953
779.85  0.9951
779.86  0.9948
779.87  0.9949
779.88  0.9950
779.89  0.9951
779.90  0.9952
779.91  0.9953
779.92  0.9945
779.93  0.9944
779.94  0.9943
779.95  0.9941
779.96  0.9940
779.97  0.9940
779.98  0.9941
779.99  0.9941
780.00  0.9941
780.01  0.9941
780.02  0.9941
780.03  0.9941
780.04  0.9940
780.05  0.9940
780.06  0.9940
780.07  0.9939
780.08  0.9938
780.09  0.9937
780.10  0.9937
780.11  0.9936
780.12  0.9937
780.13  0.9937
780.14  0.9938
780.15  0.9939
780.16  0.9945
780.17  0.9944
780.18  0.9942
780.19  0.9941
780.20  0.9939
780.21  0.9938
780.22  0.9940
780.23  0.9942
780.24  0.9944
780.25  0.9946
780.26  0.9948
780.27  0.9945
780.28  0.9943
780.29  0.9941
780.30  0.9938
780.31  0.9936
780.32  0.9939
780.33  0.9941
780.34  0.9944
780.35  0.9947
780.36  0.9950
780.37  0.9946
780.38  0.9943
780.39  0.9940
780.40  0.9937
780.41  0.9934
780.42  0.9937
780.43  0.9941
780.44  0.9944
780.45  0.9948
780.46  0.9951
780.47  0.9947
780.48  0.9943
780.49  0.9940
780.50  0.9936
780.51  0.9932
780.52  0.9936
780.53  0.9940
780.54  0.9943
780.55  0.9947
780.56  0.9951
780.57  0.9947
780.58  0.9943
780.59  0.9938
780.60  0.9934
780.61  0.9930
780.62  0.9934
780.63  0.9938
780.64  0.9941
780.65  0.9945
780.66  0.9949
780.67  0.9945
780.68  0.9940
780.69  0.9936
780.70  0.9932
780.71  0.9927
780.72  0.9931
780.73  0.9934
780.74  0.9938
780.75  0.9941
780.76  0.9945
780.77  0.9941
780.78  0.9936
780.79  0.9932
780.80  0.9928
780.81  0.9924
780.82  0.9927
780.83  0.9930
780.84  0.9933
780.85  0.9936
780.86  0.9939
780.87  0.9935
780.88  0.9931
780.89  0.9927
780.90  0.9924
780.91  0.9920
780.92  0.9922
780.93  0.9925
780.94  0.9927
780.95  0.9930
780.96  0.9932
780.97  0.9929
780.98  0.9925
780.99  0.9922
781.00  0.9919
781.01  0.9915
781.02  0.9917
781.03  0.9919
781.04  0.9921
781.05  0.9922
781.06  0.9924
781.07  0.9922
781.08  0.9919
781.09  0.9917
781.10  0.9914
781.11  0.9912
781.12  0.9913
781.13  0.9914
781.14  0.9914
781.15  0.9915
781.16  0.9916
781.17  0.9909
781.18  0.9908
781.19  0.9906
781.20  0.9905
781.21  0.9904
781.22  0.9904
781.23  0.9904
781.24  0.9904
781.25  0.9905
781.26  0.9905
781.27  0.9905
781.28  0.9904
781.29  0.9904
781.30  0.9904
781.31  0.9903
781.32  0.9903
781.33  0.9902
781.34  0.9901
781.35  0.9900
781.36  0.9899
781.37  0.9900
781.38  0.9901
781.39  0.9901
781.40  0.9902
781.41  0.9909
781.42  0.9907
781.43  0.9906
781.44  0.9905
781.45  0.9903
781.46  0.9902
781.47  0.9903
781.48  0.9905
781.49  0.9907
781.50  0.9909
781.51  0.9911
781.52  0.9909
781.53  0.9906
781.54  0.9904
781.55  0.9902
781.56  0.9899
781.57  0.9902
781.58  0.9905
781.59  0.9908
781.60  0.9910
781.61  0.9913
781.62  0.9910
781.63  0.9907
781.64  0.9904
781.65  0.9901
781.66  0.9898
781.67  0.9901
781.68  0.9904
781.69  0.9908
781.70  0.9911
781.71  0.9914
781.72  0.9911
781.73  0.9907
781.74  0.9903
781.75  0.9900
781.76  0.9896
781.77  0.9900
781.78  0.9903
781.79  0.9907
781.80  0.9911
781.81  0.9914
781.82  0.9910
781.83  0.9906
781.84  0.9902
781.85  0.9898
781.86  0.9894
781.87  0.9897
781.88  0.9901
781.89  0.9905
781.90  0.9909
781.91  0.9912
781.92  0.9908
781.93  0.9904
781.94  0.9899
781.95  0.9895
781.96  0.9891
781.97  0.9894
781.98  0.9898
781.99  0.9901
782.00  0.9905
782.01  0.9908
782.02  0.9904
782.03  0.9900
782.04  0.9896
782.05  0.9891
782.06  0.9887
782.07  0.9890
782.08  0.9893
782.09  0.9897
